MORPHOLOGY AT STRAIN =    1.0000  FOR PHASE  1
   1.071   2.298   0.406  <-- AXES OF PHASE ELLIPSOID
 -154.11   90.07   90.02  <-- EULER ANGLES OF PHASE ELLIPSOID (deg)
   1.096   2.456   0.396  <-- AVERAGE OF GRAIN AXES FOR PHASE
   0.158   0.224   0.264  <-- STANDARD DEV OF AVG GRAIN AXES FOR PHASE
B       500
 -163.94  123.30   60.26     0.002000       1.0467    1.9976    0.4797
 -153.19  110.96  100.83     0.002000       1.0530    2.9598    0.3174
 -154.65   92.81  108.43     0.002000       1.0799    3.1444    0.2908
 -154.03   90.38   87.85     0.002000       1.3328    2.1077    0.3548
 -153.79   92.34   99.18     0.002000       1.2563    2.2507    0.3525
 -154.87   86.25   87.14     0.002000       1.0003    3.7625    0.2608
 -149.95   88.38   87.51     0.002000       1.1825    1.8608    0.4556
 -154.14   77.73   82.24     0.002000       1.0264    3.4479    0.2782
 -154.74   88.91   81.05     0.002000       1.3343    2.3258    0.3199
 -157.52   67.94  107.56     0.002000       1.0364    2.8861    0.3324
 -155.09   89.63  104.23     0.002000       1.0076    3.4252    0.2856
 -155.06   95.25   90.60     0.002000       1.0003    3.7573    0.2611
 -155.31   84.53   82.30     0.002000       0.9372    2.0271    0.5261
 -153.20  100.82  101.92     0.002000       1.1336    1.8232    0.4838
 -155.70  100.96   94.01     0.002000       0.7494    2.4744    0.5382
 -144.94   85.95   82.81     0.002000       1.0484    1.7963    0.5373
 -155.04   85.07   96.79     0.002000       1.0004    3.7133    0.2645
 -159.72   51.84  106.28     0.002000       0.7715    2.3377    0.5570
 -151.47   91.63  100.40     0.002000       0.7157    2.4604    0.5699
 -156.31  108.64   81.76     0.002000       1.0019    3.3259    0.2963
 -152.69   70.82   77.55     0.002000       0.9320    2.2574    0.4739
 -152.65  104.56  104.88     0.002000       1.1092    3.0240    0.2947
 -155.59   96.99   84.30     0.002000       1.0005    3.6666    0.2678
 -154.18   96.65  106.93     0.002000       1.1021    3.1069    0.2882
 -153.42   90.48   91.09     0.002000       1.2678    2.2234    0.3539
 -162.68  109.08  100.05     0.002000       1.1847    1.5829    0.5349
 -155.98   92.67   94.47     0.002000       1.2053    2.3631    0.3487
 -153.83   87.71   74.59     0.002000       1.3942    2.2939    0.3103
 -142.57   87.27   82.33     0.002000       1.0101    1.8302    0.5478
 -156.24   91.80  110.31     0.002000       1.3993    2.2673    0.3121
 -155.68   92.83   93.40     0.002000       1.1972    2.3109    0.3595
 -152.67   78.81   68.29     0.002000       1.2203    2.4919    0.3262
 -153.64   84.99   75.00     0.002000       1.4007    2.1444    0.3310
 -144.69   82.87   72.25     0.002000       0.9805    1.9082    0.5407
 -154.93   88.64  112.18     0.002000       1.4312    2.4138    0.2865
 -151.92   74.75   71.88     0.002000       1.1148    2.0009    0.4478
 -153.08  102.50  107.71     0.002000       1.1480    2.8161    0.3060
 -154.65  127.77   88.20     0.002000       0.7971    2.7957    0.4477
 -156.11   83.88   87.90     0.002000       0.8401    2.4601    0.4825
 -153.33   84.12   84.58     0.002000       1.1288    1.7503    0.5066
 -155.18   56.96   89.20     0.002000       0.8950    2.9904    0.3705
 -156.00   83.17   84.01     0.002000       1.2286    2.2864    0.3537
 -153.73   92.06   96.33     0.002000       1.2793    2.2358    0.3483
 -156.03   95.75   68.90     0.002000       1.4379    2.3639    0.2911
 -154.36   92.36   99.03     0.002000       1.4014    2.1901    0.3238
 -152.97   86.86   94.04     0.002000       1.1181    1.6510    0.5431
 -159.35  121.74   74.79     0.002000       0.9793    2.7647    0.3677
 -153.48   93.34   96.62     0.002000       1.2674    2.2709    0.3462
 -154.71   90.52   69.41     0.002000       1.4406    2.3521    0.2922
 -156.25   99.33   66.18     0.002000       1.2017    2.7634    0.2982
 -156.26  101.42   77.84     0.002000       1.0018    3.4085    0.2887
 -155.13   91.09   94.93     0.002000       1.2229    2.4233    0.3351
 -154.46  102.66  100.04     0.002000       1.0724    1.9127    0.4867
 -154.44   84.76   76.50     0.002000       1.0312    3.3875    0.2821
 -156.23   56.63   95.77     0.002000       0.7768    2.8107    0.4569
 -148.28   98.49  103.74     0.002000       0.7566    2.2311    0.5962
 -150.75   79.35   80.05     0.002000       0.8672    2.3802    0.4859
 -153.63   84.53   66.21     0.002000       1.2735    2.5917    0.2999
 -155.34   92.16   87.26     0.002000       1.0001    3.7635    0.2606
 -156.89   96.66   85.73     0.002000       0.9553    1.8749    0.5586
 -155.16   90.96   97.09     0.002000       1.0005    3.6789    0.2669
 -153.67   91.03   92.55     0.002000       1.3206    2.2002    0.3428
 -150.56   94.21   87.61     0.002000       0.8310    2.4698    0.4896
 -155.83   87.28   81.84     0.002000       1.0013    3.5945    0.2724
 -154.84   89.32   86.34     0.002000       1.3003    2.2124    0.3459
 -154.39   92.29   99.71     0.002000       1.3501    2.2692    0.3241
 -153.93   98.11  107.39     0.002000       1.1231    3.0191    0.2912
 -153.52  107.46  102.86     0.002000       1.0226    2.2217    0.4381
 -152.79  114.03   98.93     0.002000       1.0367    3.0020    0.3182
 -156.18  101.31   96.05     0.002000       0.8328    2.1960    0.5459
 -153.38   87.68   88.16     0.002000       1.1184    1.7260    0.5187
 -152.53   92.67   93.69     0.002000       1.2353    2.1825    0.3703
 -155.30   81.40   98.09     0.002000       1.0008    3.6084    0.2725
 -154.11   85.60   86.28     0.002000       0.9634    2.4837    0.4171
 -155.04  102.39   94.15     0.002000       1.0150    3.5650    0.2714
 -155.39   86.11   96.44     0.002000       1.0003    3.6881    0.2662
 -154.65   91.03  112.63     0.002000       1.1929    2.8579    0.2901
 -154.54   90.89  113.31     0.002000       1.3716    2.5252    0.2857
 -154.12   91.67   97.90     0.002000       1.3270    2.3350    0.3206
 -153.77   97.23  108.89     0.002000       1.1444    2.9454    0.2932
 -153.17   93.40  101.65     0.002000       1.3418    2.2211    0.3337
 -154.64   77.59   90.14     0.002000       1.0023    3.6417    0.2695
 -155.78   81.25  105.41     0.002000       1.0137    3.3202    0.2935
 -155.30   91.63   97.95     0.002000       1.3054    2.2194    0.3432
 -155.24   87.60   89.06     0.002000       1.0001    3.7678    0.2603
 -154.00   91.33   99.52     0.002000       1.2717    2.2842    0.3427
 -152.18   92.27   90.63     0.002000       1.2476    2.1415    0.3739
 -157.21   82.04   88.10     0.002000       0.8604    2.4671    0.4694
 -151.22  100.67  105.59     0.002000       1.2063    1.9235    0.4311
 -150.47   84.95   80.70     0.002000       1.1349    1.7555    0.5039
 -154.77   93.44  109.25     0.002000       1.0968    3.0245    0.2979
 -156.05   77.16  101.05     0.002000       1.0018    3.4400    0.2862
 -142.29   92.07   96.01     0.002000       1.0083    1.5727    0.6391
 -152.11  111.01  105.96     0.002000       1.0747    2.5672    0.3599
 -153.98   92.54   94.62     0.002000       1.2446    2.2944    0.3488
 -153.42   80.39   73.44     0.002000       1.1053    3.0721    0.2909
 -159.33  107.66   66.40     0.002000       1.0175    2.7821    0.3507
 -150.07   93.42   94.12     0.002000       1.0321    2.1973    0.4434
 -147.97   93.51   72.18     0.002000       0.8030    1.8925    0.6642
 -149.77   93.33   91.66     0.002000       1.1698    1.8972    0.4522
 -151.44   97.90   99.67     0.002000       0.9519    2.3997    0.4387
 -151.17   91.79   92.07     0.002000       1.2233    2.0824    0.3926
 -154.65   90.18  100.63     0.002000       1.4106    2.2911    0.3068
 -154.44   89.53   64.96     0.002000       1.3453    2.5368    0.2900
 -155.53   91.10   91.87     0.002000       1.0450    1.8380    0.5206
 -155.02   91.76   91.53     0.002000       1.2483    2.2760    0.3501
 -154.01   74.42   86.30     0.002000       1.0128    3.5045    0.2775
 -154.75   90.38   73.24     0.002000       1.4387    2.3047    0.2988
 -151.89   97.56  103.18     0.002000       1.3265    2.0334    0.3699
 -153.66   89.41   84.39     0.002000       1.2523    2.1792    0.3656
 -153.74   84.94   69.20     0.002000       1.1462    2.9796    0.2893
 -155.50  120.12   87.47     0.002000       0.7443    2.8133    0.4760
 -161.57   52.45  113.73     0.002000       0.8900    2.0054    0.5638
 -153.94  102.41  100.15     0.002000       0.9520    2.1057    0.4980
 -156.50   97.46   96.28     0.002000       1.4300    1.9786    0.3515
 -155.24   92.05   70.15     0.002000       1.4742    2.2486    0.2988
 -150.05   97.54   98.60     0.002000       0.8703    2.4552    0.4698
 -157.13  103.64   67.18     0.002000       1.1127    2.8419    0.3135
 -152.61   78.93   74.35     0.002000       1.0311    1.9343    0.5016
 -152.62  112.48  101.99     0.002000       1.0542    2.8678    0.3277
 -154.49   79.62   83.83     0.002000       1.0127    3.5518    0.2734
 -150.13   90.92   90.29     0.002000       1.1597    1.8039    0.4794
 -152.98   54.95   87.58     0.002000       0.8452    2.9068    0.4052
 -155.11  106.71   77.22     0.002000       0.7252    2.5245    0.5476
 -153.63   79.13   75.90     0.002000       1.0790    3.1740    0.2881
 -154.93  119.77   88.24     0.002000       0.9819    3.0634    0.3297
 -145.35   88.81   87.90     0.002000       1.0005    2.0585    0.4910
 -153.54   80.30   67.52     0.002000       1.2462    2.4382    0.3262
 -151.73  102.28  109.53     0.002000       1.2035    2.0896    0.3966
 -154.66   90.72  104.52     0.002000       1.0140    3.4253    0.2839
 -150.06   86.98   83.55     0.002000       1.1754    1.9071    0.4476
 -156.76   86.58   85.91     0.002000       0.8840    2.3702    0.4759
 -155.91   88.16   94.91     0.002000       1.0106    1.8461    0.5362
 -159.83  117.99   69.96     0.002000       1.0205    2.6462    0.3688
 -152.13   75.98   68.92     0.002000       1.1824    2.2451    0.3748
 -149.98   77.28  103.24     0.002000       0.7917    2.2286    0.5714
 -160.05  126.29   68.16     0.002000       0.8494    2.2634    0.5229
 -153.41   89.86   92.80     0.002000       1.2715    2.2084    0.3552
 -163.97   95.38   77.27     0.002000       1.0025    1.1842    0.8509
 -153.55  106.20  103.67     0.002000       1.0497    2.1802    0.4350
 -155.94   79.80  106.79     0.002000       1.0286    3.2580    0.2950
 -157.10  102.20   65.52     0.002000       1.1847    2.6761    0.3128
 -152.40   96.05   97.04     0.002000       1.3229    2.0255    0.3722
 -154.74   72.40   90.40     0.002000       1.0037    3.4399    0.2857
 -153.03   85.49   76.07     0.002000       1.1183    1.8236    0.4906
 -153.65   87.82   79.56     0.002000       1.2853    2.2681    0.3416
 -154.55   89.94  100.77     0.002000       1.3502    2.3496    0.3128
 -142.64   87.90   79.31     0.002000       1.0747    1.6909    0.5576
 -153.95   90.22   90.18     0.002000       1.0999    1.7080    0.5331
 -145.53   97.79  106.50     0.002000       0.9997    1.8986    0.5327
 -151.43   76.70   68.33     0.002000       1.2075    2.2037    0.3744
 -155.57   91.55   98.38     0.002000       1.3367    2.1868    0.3401
 -154.21   97.75   92.19     0.002000       0.8195    2.5383    0.4803
 -155.05   95.60   91.54     0.002000       0.7870    2.5714    0.4931
 -147.91   85.81   79.48     0.002000       1.0827    2.0289    0.4591
 -155.92   96.96   69.82     0.002000       1.0491    3.1091    0.3033
 -153.49   58.81   87.28     0.002000       0.9488    2.9624    0.3533
 -153.28  103.13  101.79     0.002000       1.0715    3.2647    0.2820
 -154.25   90.06   86.69     0.002000       1.3104    2.1542    0.3529
 -152.78   90.54   87.82     0.002000       1.2468    2.1962    0.3645
 -151.86  104.86  107.63     0.002000       1.0902    2.0668    0.4432
 -155.75   85.21  107.22     0.002000       1.4542    2.3705    0.2869
 -155.35   95.38   93.73     0.002000       0.9142    2.5384    0.4294
 -152.44   64.66   76.16     0.002000       0.9853    2.5225    0.3997
 -148.73   98.22   98.86     0.002000       0.9430    2.1631    0.4937
 -153.95  108.11   98.25     0.002000       0.8848    2.2606    0.4987
 -155.06   91.62   69.06     0.002000       1.0650    3.0976    0.2997
 -155.00   83.55   94.39     0.002000       1.0004    3.7427    0.2623
 -146.56   89.14   87.03     0.002000       1.0486    1.2028    0.8029
 -156.84   86.83   94.18     0.002000       1.4228    2.2211    0.3133
 -154.01   91.19   99.24     0.002000       1.2433    2.2422    0.3575
 -155.44   86.27  104.28     0.002000       1.0055    3.4213    0.2866
 -153.89   97.14  103.90     0.002000       1.0622    3.3314    0.2786
 -149.76   90.64   90.61     0.002000       1.0002    2.3836    0.4216
 -155.48   56.90   96.10     0.002000       0.9536    2.9351    0.3556
 -153.81   89.08   91.13     0.002000       1.3409    2.1107    0.3523
 -154.14   88.81   80.63     0.002000       1.2877    2.2698    0.3403
 -151.36   76.75   69.51     0.002000       1.1776    2.0978    0.4039
 -153.81   83.89   87.99     0.002000       0.7890    2.5610    0.4947
 -158.51   84.48   91.62     0.002000       1.3663    2.1146    0.3433
 -155.79   87.84   63.63     0.002000       1.3413    2.4652    0.2989
 -158.38   95.18   93.37     0.002000       1.1193    2.1862    0.4068
 -153.58   68.17   79.25     0.002000       0.9431    2.2939    0.4603
 -153.98  122.82   85.26     0.002000       0.7316    2.6426    0.5182
 -156.36   90.67   81.15     0.002000       1.2834    2.3147    0.3339
 -155.22   87.90  107.86     0.002000       1.4718    2.3227    0.2895
 -153.72   91.99   93.01     0.002000       1.3736    2.1613    0.3353
 -155.38   91.30   97.21     0.002000       1.0034    1.8089    0.5516
 -151.05   88.11   88.18     0.002000       1.1585    1.7594    0.4918
 -153.83   90.11   96.36     0.002000       1.2714    2.1663    0.3622
 -152.85  103.33  104.36     0.002000       1.0222    1.9768    0.4947
 -154.68   89.89  103.30     0.002000       1.4216    2.3211    0.3004
 -157.03   79.68  114.72     0.002000       1.3025    2.4841    0.3064
 -149.36   88.43   84.22     0.002000       1.0026    1.1865    0.8501
 -153.96   90.54   85.60     0.002000       1.2332    2.4293    0.3319
 -151.74   83.54   84.02     0.002000       0.9050    2.4138    0.4588
 -154.97   90.89   75.59     0.002000       1.0053    3.4340    0.2856
 -154.78   97.31   94.50     0.002000       1.0043    3.6724    0.2663
 -154.57  113.41   92.65     0.002000       1.0110    3.1989    0.3054
 -156.73  127.80   84.86     0.002000       0.8551    2.7935    0.4171
 -156.68  107.22   78.88     0.002000       1.0020    3.3010    0.2985
 -152.33  102.69  110.00     0.002000       1.2076    2.1483    0.3838
 -152.03   95.27   98.01     0.002000       1.1070    1.7127    0.5292
 -141.53   93.57  104.96     0.002000       0.9941    1.6161    0.6309
 -153.83   91.99   98.78     0.002000       1.2614    2.2229    0.3555
 -156.53   84.91   83.17     0.002000       0.9363    1.8234    0.5866
 -155.35   94.39   66.92     0.002000       1.1304    2.9363    0.2982
 -150.02  100.15   97.21     0.002000       0.8350    2.3444    0.5132
 -155.12   74.04   91.41     0.002000       1.0023    3.4779    0.2827
 -159.53   67.70  115.63     0.002000       1.0978    2.4355    0.3730
 -163.96  121.34   66.15     0.002000       0.8857    2.5009    0.4508
 -153.09  105.71  104.01     0.002000       1.1008    2.9802    0.3013
 -155.68   83.12  106.83     0.002000       1.0228    3.2710    0.2954
 -152.32   91.54   80.26     0.002000       1.0791    1.6121    0.5775
 -155.00   92.97   94.45     0.002000       1.0005    3.7686    0.2601
 -145.00   90.93   90.48     0.002000       1.0589    1.2199    0.7842
 -151.58   97.92   98.07     0.002000       1.1653    1.7613    0.4881
 -153.97   81.41   76.25     0.002000       1.0609    3.2825    0.2831
 -150.68   83.74   83.63     0.002000       1.1714    1.7775    0.4815
 -151.87   96.90  104.45     0.002000       1.1049    1.8340    0.4944
 -155.73  110.19   85.54     0.002000       1.0022    3.3808    0.2911
 -150.72   92.60   88.85     0.002000       1.1536    1.6907    0.5143
 -151.43   93.91  101.75     0.002000       1.1793    1.8216    0.4660
 -154.75   87.67  111.93     0.002000       1.4249    2.4644    0.2818
 -153.57   89.41   84.28     0.002000       1.2732    2.1972    0.3566
 -152.69   90.60   97.00     0.002000       1.3019    2.3096    0.3314
 -154.51   90.80   99.93     0.002000       1.2815    2.3368    0.3319
 -153.77   87.81   82.78     0.002000       1.2770    2.2181    0.3518
 -153.77  115.28   95.50     0.002000       1.0175    3.0559    0.3183
 -154.56   90.32   89.60     0.002000       1.0896    1.7280    0.5317
 -159.89   89.18   87.17     0.002000       1.1312    2.1667    0.4057
 -153.35   87.38   85.33     0.002000       1.2602    2.2037    0.3591
 -154.94   89.11   81.46     0.002000       1.0008    3.6505    0.2690
 -154.58   90.58   98.41     0.002000       1.3292    2.3538    0.3173
 -154.16   84.50   70.63     0.002000       1.1161    3.0168    0.2934
 -152.33   85.76   90.83     0.002000       1.1266    1.6447    0.5413
 -153.80   90.41   82.85     0.002000       1.2618    2.2223    0.3554
 -152.74   94.93   95.28     0.002000       0.9903    2.4937    0.4047
 -154.71   95.12   92.04     0.002000       0.9077    2.5175    0.4366
 -156.92   97.66   85.60     0.002000       0.9680    1.8504    0.5587
 -151.17   88.27   78.43     0.002000       1.0927    1.6860    0.5453
 -151.76   61.01   79.51     0.002000       0.9511    2.7199    0.3843
 -153.71   96.01  110.67     0.002000       1.1790    2.8935    0.2897
 -155.73   82.04  101.47     0.002000       1.0017    3.4807    0.2827
 -152.96   90.01   82.15     0.002000       1.3031    2.1884    0.3499
 -159.28   84.68  100.54     0.002000       1.3686    1.9957    0.3638
 -157.29   92.22   91.95     0.002000       0.8939    2.4908    0.4471
 -158.04  114.37   72.81     0.002000       1.0173    2.9045    0.3363
 -153.41   82.26   92.36     0.002000       0.7104    2.5521    0.5523
 -162.16   65.15  118.58     0.002000       0.9517    1.5450    0.6869
 -147.75   93.76   95.74     0.002000       0.9963    2.2240    0.4552
 -155.27   89.75   93.12     0.002000       1.2842    2.4183    0.3192
 -148.26   80.05   76.85     0.002000       0.7681    2.2403    0.5846
 -154.50   89.28   79.48     0.002000       1.3019    2.3379    0.3264
 -152.64   81.45   66.86     0.002000       1.2865    2.3432    0.3294
 -154.38   88.95  113.71     0.002000       1.2394    2.8270    0.2824
 -157.21   61.52  100.56     0.002000       0.9977    2.9269    0.3402
 -153.28   94.05   93.31     0.002000       1.1368    1.7469    0.5040
 -152.28  101.78  111.15     0.002000       1.2054    2.5306    0.3253
 -155.68   87.06   84.22     0.002000       1.2222    2.3725    0.3424
 -155.25   96.61   92.79     0.002000       0.7477    2.5505    0.5233
 -143.02   92.07   96.55     0.002000       1.0452    1.7870    0.5422
 -154.86   88.46  114.33     0.002000       1.2650    2.7205    0.2876
 -154.47   88.85  113.69     0.002000       1.3845    2.5365    0.2818
 -154.26   67.34   88.98     0.002000       1.0060    3.2647    0.3010
 -154.56   87.74   65.22     0.002000       1.3652    2.3593    0.3077
 -154.82   90.27  109.58     0.002000       1.0735    3.1292    0.2942
 -155.24   76.30   93.92     0.002000       1.0012    3.5454    0.2775
 -153.20   92.54   85.27     0.002000       1.0742    1.5521    0.6026
 -155.77   91.07   96.19     0.002000       1.2467    2.2673    0.3517
 -154.70   91.96   99.13     0.002000       1.2864    2.2353    0.3461
 -152.38   75.38   72.90     0.002000       1.1300    2.8600    0.3063
 -153.12   64.79   88.11     0.002000       0.7228    2.7456    0.5032
 -143.32   93.87   97.38     0.002000       1.0186    1.6509    0.6024
 -156.15   51.20  101.62     0.002000       0.7852    2.4477    0.5226
 -154.36   95.19  111.16     0.002000       1.3754    2.2802    0.3161
 -153.63   53.72   88.90     0.002000       0.8431    2.8344    0.4169
 -151.28   83.75   75.73     0.002000       1.2506    1.9734    0.4049
 -155.76   95.95   69.81     0.002000       1.0488    3.1185    0.3024
 -153.54  113.39   98.75     0.002000       0.8607    2.3867    0.4851
 -154.25   54.47   89.81     0.002000       0.8299    2.9219    0.4103
 -154.08   91.68   99.45     0.002000       1.2926    2.2678    0.3395
 -155.16   59.07   91.44     0.002000       0.9624    2.9923    0.3446
 -150.58   96.27   96.33     0.002000       0.9152    2.4901    0.4402
 -154.67   76.96   86.95     0.002000       1.0074    3.5463    0.2754
 -150.32   75.67   94.79     0.002000       0.7673    2.4593    0.5331
 -154.19  118.00   95.74     0.002000       0.7772    2.5371    0.5057
 -153.79   90.86   97.27     0.002000       1.2586    2.1886    0.3621
 -153.48   89.72   93.69     0.002000       1.3570    2.1437    0.3427
 -154.74   87.09   77.28     0.002000       1.0112    3.4673    0.2809
 -158.79   70.23  114.50     0.002000       1.0894    2.5695    0.3557
 -153.17   80.72   68.03     0.002000       1.2270    2.5661    0.3147
 -153.79   96.76   96.18     0.002000       0.9299    2.5208    0.4258
 -160.92  108.90   59.70     0.002000       1.1742    2.2947    0.3695
 -156.01   87.53   78.63     0.002000       1.0050    3.5513    0.2746
 -155.78   87.52   73.26     0.002000       1.3976    2.2096    0.3211
 -152.88   89.96   82.76     0.002000       1.3204    2.2652    0.3331
 -148.12   85.36   82.49     0.002000       0.9246    2.2975    0.4742
 -153.45   75.65   79.65     0.002000       1.0524    3.2712    0.2866
 -151.84   65.57   76.11     0.002000       1.0113    2.6042    0.3772
 -151.95   79.66   73.73     0.002000       1.0798    1.8843    0.4921
 -152.28   68.68   77.06     0.002000       1.0704    2.8988    0.3192
 -154.74   88.54   71.88     0.002000       1.0421    3.2145    0.2947
 -151.70   81.34   74.90     0.002000       1.0970    1.8321    0.4986
 -155.30   88.76   94.10     0.002000       1.0001    3.7473    0.2618
 -153.44   89.64   90.32     0.002000       1.2827    2.1477    0.3624
 -153.75   88.53   84.84     0.002000       1.2521    2.2585    0.3524
 -154.37   96.42   90.58     0.002000       0.8419    2.6302    0.4506
 -154.01   89.01   84.08     0.002000       1.2946    2.2204    0.3462
 -147.64   89.55   90.26     0.002000       1.0002    2.2318    0.4519
 -152.60  107.62  106.74     0.002000       1.0769    2.1095    0.4390
 -155.75   90.67   95.56     0.002000       1.3069    2.2086    0.3444
 -152.38  101.35  111.50     0.002000       1.2436    2.3099    0.3460
 -151.92   74.57   69.38     0.002000       1.1659    2.4166    0.3526
 -153.69  119.55   93.40     0.002000       0.9725    3.0017    0.3397
 -153.70   93.02   91.12     0.002000       0.9107    2.6010    0.4213
 -153.19   88.01   86.84     0.002000       1.2431    2.1745    0.3694
 -154.30   91.24   87.94     0.002000       0.7402    2.5479    0.5302
 -152.71   90.08   83.19     0.002000       1.2823    2.3442    0.3315
 -149.92   90.79   87.45     0.002000       1.1928    1.8251    0.4606
 -153.86   99.50  105.46     0.002000       1.1015    3.1009    0.2889
 -161.06   96.06   93.81     0.002000       1.0652    2.0439    0.4581
 -153.85   89.23   90.58     0.002000       1.3410    2.1098    0.3524
 -159.46  116.72   68.45     0.002000       1.0430    2.6496    0.3606
 -154.70   86.58   75.83     0.002000       1.0204    3.3772    0.2860
 -153.36   89.45   83.75     0.002000       1.3248    2.1332    0.3530
 -154.72   92.57  113.61     0.002000       1.3682    2.3607    0.3068
 -151.86   95.03   96.05     0.002000       1.1960    1.8017    0.4645
 -162.06   67.18   80.09     0.002000       1.0858    1.6440    0.5625
 -152.18   90.26   91.41     0.002000       1.2353    2.1879    0.3696
 -154.87   91.35   93.89     0.002000       1.2252    2.2920    0.3544
 -155.71   92.89   90.97     0.002000       1.0162    1.9015    0.5173
 -155.73   97.46   80.85     0.002000       1.0008    3.5784    0.2746
 -154.07  119.16   91.63     0.002000       0.9792    3.0742    0.3292
 -152.73   99.36  106.35     0.002000       1.0985    1.9353    0.4700
 -152.38   85.99   85.05     0.002000       0.9359    2.5931    0.4119
 -154.75   95.99  109.44     0.002000       1.1354    2.9924    0.2903
 -149.14   91.77   88.45     0.002000       0.9288    2.3540    0.4605
 -153.83   90.44   97.52     0.002000       1.2450    2.2247    0.3600
 -153.40   87.08   83.55     0.002000       1.3155    2.1822    0.3468
 -155.79   80.60  106.37     0.002000       1.0241    3.2714    0.2951
 -152.22   82.37   81.63     0.002000       0.8640    2.5627    0.4516
 -158.36   55.64  102.84     0.002000       0.9495    2.7047    0.3884
 -154.07   96.92  105.06     0.002000       1.0756    3.2751    0.2798
 -173.89   97.42   88.09     0.002000       1.0032    1.3344    0.7518
 -154.27   86.63   66.49     0.002000       1.3559    2.4663    0.2959
 -150.85   95.25   96.30     0.002000       1.0124    2.2792    0.4350
 -153.68   80.18   75.58     0.002000       1.0805    3.2375    0.2818
 -153.37   58.68   83.56     0.002000       0.7785    2.5831    0.4959
 -153.57   75.38   75.97     0.002000       1.0745    2.0411    0.4545
 -154.75   92.28   68.63     0.002000       1.4319    2.4414    0.2830
 -151.78   95.12   95.38     0.002000       1.0223    2.3890    0.4100
 -154.58   89.73  101.71     0.002000       1.3878    2.3393    0.3055
 -142.42   90.98   90.95     0.002000       1.0042    1.8255    0.5524
 -155.60   84.60  103.25     0.002000       1.0033    3.4448    0.2852
 -149.81   91.65   92.66     0.002000       1.1042    2.1223    0.4292
 -150.09   93.09   92.41     0.002000       1.1871    1.8921    0.4462
 -157.91  130.31   80.79     0.002000       0.7958    2.6422    0.4755
 -155.13   86.42   89.11     0.002000       1.0714    1.8058    0.5168
 -154.89  110.47   88.52     0.002000       1.0041    3.3934    0.2895
 -154.02   90.32   87.28     0.002000       1.3238    2.1232    0.3547
 -154.92   89.35   88.76     0.002000       1.3040    2.2433    0.3400
 -153.88   88.66   78.53     0.002000       1.3171    2.2987    0.3284
 -150.98   80.71   75.00     0.002000       1.1561    1.8594    0.4661
 -154.56   91.33   98.03     0.002000       1.3394    2.3320    0.3178
 -154.57   85.92   70.78     0.002000       1.0921    3.0369    0.2978
 -150.11   88.63   91.01     0.002000       1.1044    1.5739    0.5787
 -156.33   93.74   94.65     0.002000       1.1913    2.3318    0.3576
 -154.88   88.86  100.60     0.002000       1.0012    3.6063    0.2725
 -154.14   91.09   94.85     0.002000       1.2842    2.2213    0.3492
 -155.50   94.18   67.42     0.002000       1.1000    2.9880    0.3010
 -156.63   82.06  114.76     0.002000       1.4098    2.3364    0.3007
 -153.56  123.97   92.71     0.002000       0.7727    2.7905    0.4622
 -156.08  100.67   79.56     0.002000       1.0012    3.4753    0.2831
 -153.26   97.93  110.23     0.002000       1.3284    2.2540    0.3315
 -152.66   92.28   92.76     0.002000       0.9692    2.5786    0.3998
 -155.17   74.29   93.16     0.002000       1.0016    3.4906    0.2819
 -153.62   86.77   75.77     0.002000       1.3650    2.2596    0.3220
 -154.55   67.75   91.42     0.002000       1.0033    3.3180    0.2969
 -154.47   88.72   79.91     0.002000       1.3328    2.3179    0.3214
 -157.80  127.04   78.42     0.002000       0.8247    2.6921    0.4505
 -152.29  100.73  111.84     0.002000       1.2411    2.3900    0.3348
 -152.97   76.11   74.55     0.002000       1.1061    2.9810    0.2998
 -154.36   97.36  109.76     0.002000       1.1598    2.9000    0.2935
 -161.10   52.56  106.67     0.002000       0.7933    2.4939    0.5064
 -155.15   93.53   88.51     0.002000       1.0446    1.5728    0.6110
 -150.11   89.31   96.04     0.002000       1.1841    1.8428    0.4594
 -157.62   53.27  102.94     0.002000       0.9165    2.6528    0.4113
 -154.46   88.83   65.13     0.002000       1.2825    2.6509    0.2910
 -157.14   88.47   86.47     0.002000       1.1480    2.2403    0.3869
 -154.91   91.04   75.83     0.002000       1.0051    3.4849    0.2812
 -153.42   88.76   87.62     0.002000       1.2676    2.2275    0.3533
 -155.57   95.51   91.36     0.002000       0.9071    2.5142    0.4371
 -155.18   87.85  111.69     0.002000       1.4566    2.3301    0.2917
 -155.39   84.32   90.27     0.002000       1.0591    1.7945    0.5263
 -152.31   75.97   70.95     0.002000       1.1587    2.7087    0.3157
 -157.09   61.84   99.80     0.002000       0.9946    2.9742    0.3357
 -153.45   96.34  108.95     0.002000       1.3845    2.1903    0.3276
 -159.42   57.75  103.75     0.002000       0.9466    2.8277    0.3716
 -152.58   66.15   92.55     0.002000       0.7155    2.5937    0.5403
 -155.28   73.02   92.38     0.002000       1.0023    3.4851    0.2820
 -153.98  117.10   94.80     0.002000       1.0042    3.0067    0.3279
 -150.74   89.29   84.66     0.002000       1.1660    1.7303    0.4969
 -152.97  109.67   99.23     0.002000       1.0522    3.1643    0.2968
 -153.60   63.26   87.32     0.002000       0.7112    2.6581    0.5282
 -154.98   92.91   79.92     0.002000       1.0574    1.6938    0.5596
 -152.41   80.46   70.39     0.002000       1.2967    2.1102    0.3638
 -153.46   56.24   84.53     0.002000       0.7739    2.6873    0.4789
 -155.64  112.90   88.81     0.002000       0.7053    2.6890    0.5258
 -145.28   88.09   87.54     0.002000       1.0454    1.8694    0.5175
 -150.71   85.58   81.50     0.002000       1.1164    1.6761    0.5369
 -155.86   95.62   71.68     0.002000       1.0173    3.2201    0.3015
 -153.98   87.12   80.94     0.002000       1.2502    2.3128    0.3443
 -150.05   88.75   89.48     0.002000       1.2004    1.9016    0.4390
 -156.05   97.18   70.52     0.002000       1.0331    3.1546    0.3033
 -154.57   86.23   73.08     0.002000       1.4165    2.2373    0.3129
 -158.60   85.47   89.21     0.002000       1.1873    2.2375    0.3738
 -152.78   90.65   84.54     0.002000       1.2766    2.3658    0.3299
 -154.30   92.16  113.06     0.002000       1.3803    2.4993    0.2868
 -154.84   92.77   92.49     0.002000       1.0001    3.8007    0.2580
 -157.04  123.88   84.25     0.002000       0.9198    2.9277    0.3689
 -161.91  104.17   95.49     0.002000       1.0379    1.8785    0.5131
 -153.50   96.47  107.98     0.002000       1.3664    2.2218    0.3270
 -154.75   93.08   65.40     0.002000       1.3365    2.6279    0.2816
 -153.19   87.87   79.35     0.002000       1.3038    2.2374    0.3414
 -150.90   99.18   99.80     0.002000       0.9329    2.3502    0.4575
 -151.46   70.56   70.99     0.002000       1.1010    2.3121    0.3911
 -150.83   80.20   75.95     0.002000       1.2070    1.8763    0.4421
 -155.87   77.48   99.97     0.002000       1.0016    3.4400    0.2863
 -150.85   82.22   80.98     0.002000       1.2655    1.9055    0.4148
 -154.55   86.44   75.36     0.002000       1.4105    2.2232    0.3164
 -154.28   95.99   94.88     0.002000       0.7584    2.5862    0.5091
 -154.47   89.32   65.01     0.002000       1.2783    2.6667    0.2903
 -157.40  116.42   78.78     0.002000       1.0019    3.0657    0.3227
 -153.75   89.69   86.74     0.002000       1.3282    2.1590    0.3475
 -154.75   84.14   86.45     0.002000       1.0011    3.7234    0.2634
 -152.98   53.75   87.94     0.002000       0.7667    2.7662    0.4705
 -152.17  111.87  104.87     0.002000       1.0781    2.6669    0.3451
 -161.15  125.93   68.69     0.002000       0.9408    2.3905    0.4452
 -154.51   94.45   86.14     0.002000       1.0900    1.6725    0.5495
 -143.98   83.64   74.18     0.002000       0.9685    1.9254    0.5424
 -157.11   88.95   90.67     0.002000       0.8529    2.3689    0.4937
 -152.19   88.93   86.85     0.002000       1.2536    2.1233    0.3751
 -152.16   93.28   96.49     0.002000       1.2736    2.1328    0.3675
 -154.92   96.60   91.41     0.002000       1.0008    3.7402    0.2622
 -157.27   65.48  102.23     0.002000       1.0034    3.0198    0.3274
 -154.24   98.18  101.12     0.002000       1.0394    3.4159    0.2774
 -147.52   83.14   75.73     0.002000       1.0306    2.0465    0.4784
 -161.86   88.33   93.63     0.002000       1.1017    1.9781    0.4577
 -155.63   86.26  116.81     0.002000       1.3068    2.5422    0.2981
 -154.60   95.55  101.68     0.002000       1.0257    3.4555    0.2778
 -151.87   81.11   80.97     0.002000       0.9147    2.4276    0.4510
 -155.25   86.82  114.50     0.002000       1.2346    2.7556    0.2909
 -154.06   87.71   88.42     0.002000       1.3024    2.1923    0.3487
 -153.80   97.12  106.29     0.002000       1.0959    3.1936    0.2819
 -155.33   90.22   80.93     0.002000       1.3121    2.3562    0.3208
 -160.77  129.79   74.43     0.002000       0.8214    2.5376    0.4802
 -152.31  110.82   85.34     0.002000       0.7332    2.5641    0.5338
 -153.83   92.14   94.85     0.002000       1.2837    2.1714    0.3577
 -158.38   93.84   87.14     0.002000       1.3126    2.1735    0.3477
 -154.39   88.42   96.85     0.002000       1.0447    1.5955    0.6024
 -149.64   92.52   96.26     0.002000       1.1542    1.8339    0.4744
 -151.97   91.84   92.65     0.002000       1.2368    2.1656    0.3729
 -154.54   91.33  114.54     0.002000       1.3421    2.6093    0.2822
 -152.69   57.15   82.53     0.002000       0.8569    2.7202    0.4268
 -151.85   97.02   99.04     0.002000       1.2913    1.9382    0.3991
 -154.64   96.62   95.10     0.002000       1.0044    3.6906    0.2650
 -152.86   88.42   81.78     0.002000       1.2961    2.2839    0.3367
 -154.32   89.39   71.97     0.002000       1.4308    2.3294    0.2974
 -152.78  107.19  104.84     0.002000       1.1000    2.8456    0.3162
 -154.07   57.40   87.59     0.002000       0.9230    2.9257    0.3677
 -154.80   92.86  102.53     0.002000       1.0130    3.4702    0.2801
 -155.07   90.71  102.22     0.002000       1.3343    2.2994    0.3235
 -156.64   95.07   92.75     0.002000       0.8170    2.3921    0.5103
 -155.71   74.39   83.14     0.002000       0.9181    2.1160    0.5137
 -154.20   96.26  103.19     0.002000       1.0452    3.3747    0.2794
 -157.13   62.78  102.35     0.002000       1.0043    2.9326    0.3375
 -161.21   99.57   87.61     0.002000       1.2571    1.9286    0.4108
 -154.74   67.04   89.69     0.002000       1.0027    3.2494    0.3033
 -152.83  101.02  110.49     0.002000       1.1936    2.6631    0.3116
 -152.01   85.46   84.42     0.002000       1.3394    2.0460    0.3642
 -155.04   85.95   82.30     0.002000       1.0186    1.6570    0.5944
 -151.22   86.50   78.12     0.002000       1.0990    1.7291    0.5283
 -151.75   69.55   74.12     0.002000       1.0983    2.7277    0.3311
 -155.02   89.10  102.00     0.002000       1.0025    3.5657    0.2753
 -160.48   95.68   92.89     0.002000       1.0455    2.0547    0.4645
 -157.37  119.95   81.35     0.002000       0.9898    2.9547    0.3394
 -147.98   91.08   92.27     0.002000       1.0510    2.0941    0.4583
 -165.88  104.01   84.79     0.002000       1.2677    1.5233    0.5188
 -154.77   87.69   76.74     0.002000       1.0104    3.4577    0.2819
 -156.43   86.78   86.40     0.002000       0.7849    2.5190    0.5041
 -155.27   97.11   94.63     0.002000       1.0029    2.0200    0.4928
 -151.69   61.95   77.81     0.002000       0.9003    2.5169    0.4396
 -154.76   88.45   79.47     0.002000       1.0026    3.5846    0.2737
 -149.91   91.79   85.64     0.002000       1.1708    1.7257    0.4967
 -156.13   88.24   98.45     0.002000       1.3484    2.3184    0.3170
 -162.79   70.14   81.93     0.002000       1.1287    1.6903    0.5255
 -153.40  101.06  101.83     0.002000       1.0823    1.8353    0.5036
 -153.31   93.83   96.64     0.002000       1.3605    2.1629    0.3384
 -155.96   93.88   90.27     0.002000       0.8889    2.4889    0.4507
MORPHOLOGY AT STRAIN =    2.0000  FOR PHASE  1
   1.153   3.551   0.244  <-- AXES OF PHASE ELLIPSOID
 -156.65   90.06   90.02  <-- EULER ANGLES OF PHASE ELLIPSOID (deg)
   1.197   3.883   0.237  <-- AVERAGE OF GRAIN AXES FOR PHASE
   0.225   0.276   0.317  <-- STANDARD DEV OF AVG GRAIN AXES FOR PHASE
B       500
 -162.75  122.08   73.87     0.002000       1.0080    3.7353    0.2653
 -156.64   98.67   99.17     0.002000       1.1044    4.7303    0.1884
 -157.65   88.59  103.61     0.002000       1.0917    5.1704    0.1743
 -156.54   90.01   88.53     0.002000       1.5098    3.0733    0.2142
 -156.44   91.87   97.34     0.002000       1.4124    3.3277    0.2114
 -157.18   88.45   87.87     0.002000       1.0004    6.2750    0.1559
 -154.85   88.26   85.40     0.002000       1.3547    2.9376    0.2511
 -156.93   84.62   83.88     0.002000       1.0357    5.6674    0.1672
 -156.88   88.83   82.22     0.002000       1.4837    3.4729    0.1920
 -158.31   73.93   99.48     0.002000       1.0369    5.2134    0.1831
 -157.50   87.87   99.93     0.002000       1.0082    5.7414    0.1698
 -157.23   93.37   90.83     0.002000       1.0005    6.2628    0.1562
 -157.17   87.22   81.24     0.002000       1.1650    2.8854    0.2960
 -156.04   95.00   98.36     0.002000       1.3476    2.7468    0.2691
 -156.70  101.63   96.87     0.002000       0.9351    3.4426    0.3086
 -153.13   87.21   85.60     0.002000       1.0114    3.0475    0.3280
 -157.28   86.35   94.40     0.002000       1.0004    6.2589    0.1565
 -160.97   47.30   98.79     0.002000       0.6775    4.1292    0.3579
 -154.92   97.21   96.71     0.002000       0.6050    4.0060    0.4133
 -157.68  102.92   85.99     0.002000       1.0032    5.6988    0.1720
 -156.65   83.16   78.54     0.002000       1.1574    3.2603    0.2628
 -156.77   94.52  101.55     0.002000       1.1469    4.8505    0.1770
 -157.50   95.39   86.64     0.002000       1.0006    6.1470    0.1592
 -157.47   90.42  102.85     0.002000       1.1196    5.0345    0.1745
 -156.33   90.38   91.02     0.002000       1.4322    3.2940    0.2108
 -164.28  111.23   68.00     0.002000       1.4704    1.8882    0.3607
 -157.43   91.66   93.16     0.002000       1.3779    3.3872    0.2121
 -156.56   88.52   79.53     0.002000       1.5900    3.4439    0.1806
 -152.17   87.30   84.96     0.002000       1.0049    3.2261    0.3123
 -157.54   91.17  104.27     0.002000       1.6185    3.2507    0.1876
 -157.25   91.91   92.81     0.002000       1.3527    3.3228    0.2206
 -156.72   86.63   72.47     0.002000       1.4613    3.6123    0.1870
 -156.47   87.23   80.97     0.002000       1.6260    3.2025    0.1902
 -152.58   84.09   78.22     0.002000       0.9750    3.1632    0.3279
 -157.13   88.74  107.90     0.002000       1.7854    3.4618    0.1595
 -155.92   84.18   78.18     0.002000       1.3638    2.9238    0.2494
 -157.10   92.98  104.31     0.002000       1.2203    4.4064    0.1831
 -156.34  117.31   92.02     0.002000       0.8016    4.5196    0.2743
 -158.15   81.93   85.83     0.002000       0.7861    3.0406    0.4169
 -155.85   86.32   83.54     0.002000       1.3080    2.6619    0.2865
 -156.60   67.72   86.58     0.002000       0.9170    4.7370    0.2274
 -157.43   85.93   87.16     0.002000       1.4758    3.3403    0.2007
 -156.43   91.73   96.17     0.002000       1.4304    3.3484    0.2073
 -157.63   94.08   70.24     0.002000       1.7708    3.3999    0.1637
 -156.74   91.69   97.31     0.002000       1.5785    3.2994    0.1901
 -155.53   87.98   89.76     0.002000       1.3228    2.4270    0.3115
 -158.87  113.78   83.24     0.002000       0.9802    4.8768    0.2073
 -156.35   92.23   95.01     0.002000       1.4299    3.3680    0.2063
 -156.96   90.42   75.90     0.002000       1.7549    3.4144    0.1646
 -158.15   97.87   72.97     0.002000       1.2218    4.8149    0.1678
 -157.88   98.97   82.71     0.002000       1.0020    5.8311    0.1681
 -157.04   91.07   94.77     0.002000       1.3833    3.5534    0.2014
 -156.59   95.08   97.89     0.002000       1.3031    2.8062    0.2718
 -157.33   89.58   80.25     0.002000       1.0357    5.5799    0.1700
 -157.73   58.88   91.95     0.002000       0.7395    4.6960    0.2863
 -153.55  100.32   99.00     0.002000       0.6998    3.7091    0.3870
 -155.08   82.40   82.83     0.002000       0.8448    3.7886    0.3127
 -156.84   87.79   70.42     0.002000       1.4975    3.8642    0.1704
 -157.37   92.03   88.33     0.002000       1.0001    6.2646    0.1561
 -157.33   92.93   88.48     0.002000       1.1690    2.5685    0.3321
 -157.32   89.79   95.05     0.002000       1.0006    6.1266    0.1598
 -156.42   91.29   94.50     0.002000       1.4857    3.3476    0.1996
 -155.52  105.76   89.20     0.002000       0.6348    4.2002    0.3759
 -157.62   89.91   84.19     0.002000       1.0014    5.9300    0.1646
 -156.90   89.33   86.19     0.002000       1.4564    3.2231    0.2114
 -156.75   91.64   98.25     0.002000       1.5024    3.3863    0.1945
 -157.42   90.97  103.48     0.002000       1.1519    4.8409    0.1764
 -156.88   95.84  101.68     0.002000       1.2786    3.1871    0.2429
 -156.31  101.26   97.83     0.002000       1.0963    4.8338    0.1860
 -157.32   94.92   97.09     0.002000       1.0928    3.1278    0.2906
 -155.59   88.25   84.55     0.002000       1.3134    2.5911    0.2934
 -155.97   91.95   94.11     0.002000       1.3920    3.3168    0.2156
 -157.38   83.93   94.99     0.002000       1.0009    6.1337    0.1598
 -156.49   86.61   86.71     0.002000       0.9669    3.7492    0.2748
 -157.18   96.76   93.79     0.002000       1.0220    5.8427    0.1640
 -157.41   86.98   94.25     0.002000       1.0003    6.1773    0.1585
 -157.58   88.49  107.92     0.002000       1.2534    4.6570    0.1688
 -157.12   89.53  110.08     0.002000       1.6970    3.6689    0.1583
 -156.64   91.53   97.15     0.002000       1.4752    3.5214    0.1906
 -157.41   90.53  104.82     0.002000       1.1887    4.6982    0.1763
 -156.28   92.19   98.93     0.002000       1.5017    3.3795    0.1953
 -157.02   82.74   89.37     0.002000       1.0042    6.1149    0.1597
 -157.76   82.79   99.87     0.002000       1.0139    5.7317    0.1694
 -157.07   91.47   97.30     0.002000       1.4544    3.2416    0.2103
 -157.31   88.99   89.27     0.002000       1.0001    6.2679    0.1560
 -156.53   91.42   98.26     0.002000       1.4156    3.4102    0.2056
 -155.83   91.63   91.46     0.002000       1.4185    3.2421    0.2166
 -158.03   83.47   88.40     0.002000       0.8275    3.6712    0.3272
 -155.49   94.95   99.50     0.002000       1.4223    2.9552    0.2370
 -154.97   87.14   81.96     0.002000       1.2940    2.7302    0.2833
 -157.73   88.86  104.53     0.002000       1.1159    4.9671    0.1776
 -157.71   80.82   96.58     0.002000       1.0020    5.9061    0.1661
 -151.94   90.41   92.04     0.002000       0.9084    2.8207    0.3955
 -156.63   96.55  103.76     0.002000       1.2169    3.8806    0.2090
 -156.55   91.74   93.67     0.002000       1.4051    3.3808    0.2091
 -157.18   88.34   77.42     0.002000       1.1255    4.9433    0.1769
 -159.44  104.91   76.30     0.002000       1.0179    4.9429    0.1964
 -154.96   92.85   93.81     0.002000       1.0243    3.5103    0.2791
 -152.69   83.61   80.39     0.002000       0.6754    3.2663    0.4570
 -154.88   92.03   92.10     0.002000       1.3389    2.9724    0.2514
 -155.33   95.47   97.21     0.002000       0.9496    3.7383    0.2818
 -155.43   91.63   93.39     0.002000       1.3930    3.2268    0.2218
 -156.88   90.47   98.25     0.002000       1.5969    3.4495    0.1794
 -157.12   90.85   68.63     0.002000       1.6532    3.6955    0.1614
 -156.59   91.29   90.42     0.002000       1.2536    2.5491    0.3121
 -156.98   91.01   90.50     0.002000       1.4085    3.2955    0.2137
 -156.75   81.65   86.55     0.002000       1.0225    5.8283    0.1648
 -156.94   90.08   78.74     0.002000       1.6869    3.4088    0.1716
 -155.79   93.97   97.87     0.002000       1.5344    3.1361    0.2066
 -156.38   89.44   85.75     0.002000       1.4160    3.1998    0.2196
 -157.47   90.54   73.92     0.002000       1.1887    4.7471    0.1744
 -156.96  117.66   90.80     0.002000       0.7059    4.4765    0.3145
 -161.91   49.84  102.44     0.002000       0.7878    3.7298    0.3413
 -156.84   95.15  100.60     0.002000       1.1926    3.0681    0.2714
 -157.74   94.53   90.44     0.002000       1.7853    2.7660    0.2006
 -157.16   91.27   76.12     0.002000       1.7885    3.2555    0.1694
 -154.85   95.52   96.72     0.002000       0.8554    3.9485    0.2967
 -158.55  101.19   75.52     0.002000       1.1162    5.0499    0.1752
 -156.19   85.31   76.55     0.002000       1.2461    2.8552    0.2800
 -156.50   98.90  100.12     0.002000       1.1231    4.5410    0.1932
 -157.03   85.19   85.13     0.002000       1.0178    5.8710    0.1641
 -154.67   90.13   92.60     0.002000       1.3554    2.8580    0.2581
 -155.71   66.75   85.46     0.002000       0.8799    4.6247    0.2437
 -161.38  128.72   80.91     0.002000       0.6148    4.2010    0.3870
 -157.11   87.20   79.29     0.002000       1.0939    5.1382    0.1749
 -156.79  109.03   91.25     0.002000       1.0041    5.1209    0.1921
 -153.25   88.83   88.62     0.002000       0.9998    3.5390    0.2855
 -156.88   86.99   71.82     0.002000       1.5448    3.4496    0.1852
 -155.88   95.17  102.58     0.002000       1.4835    3.0863    0.2169
 -157.36   88.43  100.22     0.002000       1.0155    5.7376    0.1687
 -154.98   88.04   84.32     0.002000       1.3338    2.9824    0.2515
 -158.88   87.96   85.13     0.002000       0.8906    2.7609    0.4053
 -156.97   89.90   94.38     0.002000       1.2363    2.5419    0.3173
 -159.26  111.45   80.18     0.002000       1.0212    4.7881    0.2027
 -156.28   84.72   74.18     0.002000       1.4704    3.2448    0.2075
 -158.06   61.02   98.13     0.002000       0.6566    4.0669    0.3763
 -161.16  126.16   78.62     0.002000       0.7958    4.1870    0.3005
 -156.27   90.39   94.54     0.002000       1.4444    3.3198    0.2073
 -147.83   85.75   76.48     0.002000       0.9877    1.8283    0.5617
 -156.81   95.62  101.94     0.002000       1.3119    3.1190    0.2421
 -157.87   81.76  100.68     0.002000       1.0289    5.6587    0.1692
 -158.53  100.10   73.43     0.002000       1.1955    4.7502    0.1740
 -156.04   93.49   95.62     0.002000       1.5396    3.0577    0.2110
 -156.96   79.42   89.14     0.002000       1.0089    5.7859    0.1684
 -156.06   87.15   78.46     0.002000       1.3346    2.6678    0.2801
 -156.39   88.15   81.62     0.002000       1.4328    3.3784    0.2051
 -156.82   90.50   98.90     0.002000       1.5051    3.5441    0.1854
 -152.15   87.64   83.44     0.002000       1.0868    2.8684    0.3250
 -155.56   90.45   89.14     0.002000       1.2866    2.4876    0.3122
 -152.90   96.23  100.93     0.002000       1.0004    3.1205    0.3237
 -155.93   84.86   75.71     0.002000       1.5132    3.1813    0.2059
 -157.20   91.38   97.80     0.002000       1.4844    3.1969    0.2088
 -156.67   95.48   92.12     0.002000       0.7943    3.9556    0.3171
 -157.02  103.37   94.31     0.002000       0.7274    3.5119    0.3899
 -154.05   86.83   82.93     0.002000       1.1079    3.2227    0.2822
 -158.08   97.03   76.62     0.002000       1.0501    5.3491    0.1755
 -156.10   71.14   85.60     0.002000       0.9911    4.8078    0.2076
 -156.81   94.78   99.12     0.002000       1.0904    5.3150    0.1696
 -156.64   90.09   87.64     0.002000       1.4828    3.1282    0.2142
 -156.06   90.13   87.35     0.002000       1.4307    3.2940    0.2111
 -156.06   95.69  103.36     0.002000       1.3504    3.0545    0.2409
 -157.44   86.92  104.77     0.002000       1.7894    3.4246    0.1607
 -157.03   93.51   93.29     0.002000       0.9131    3.8326    0.2841
 -156.73   81.51   77.65     0.002000       1.1496    3.7487    0.2290
 -154.38   96.15   96.34     0.002000       0.9151    3.5516    0.3093
 -156.91   96.03   98.24     0.002000       1.1388    3.2461    0.2682
 -157.81   93.84   75.17     0.002000       1.0707    5.2062    0.1767
 -157.23   85.77   92.67     0.002000       1.0005    6.3023    0.1553
 -149.93   88.63   85.17     0.002000       1.0988    1.9209    0.4813
 -157.83   88.30   94.85     0.002000       1.6503    3.2300    0.1850
 -156.51   91.25   97.55     0.002000       1.3967    3.3025    0.2154
 -157.62   85.92   99.64     0.002000       1.0056    5.7902    0.1688
 -157.14   91.47  100.31     0.002000       1.0712    5.4675    0.1678
 -154.83   90.50   90.41     0.002000       1.0002    3.8543    0.2604
 -157.03   67.07   91.40     0.002000       0.9565    5.0479    0.2054
 -156.47   89.63   90.65     0.002000       1.5201    3.0953    0.2113
 -156.60   88.87   82.07     0.002000       1.4330    3.3558    0.2063
 -155.78   84.57   76.79     0.002000       1.4477    3.0814    0.2227
 -156.71   86.62   88.02     0.002000       0.6934    3.9755    0.3620
 -158.62   86.54   93.70     0.002000       1.6103    2.9752    0.2062
 -157.55   89.33   68.70     0.002000       1.6581    3.4514    0.1720
 -158.53   93.17   91.72     0.002000       1.2587    3.0128    0.2617
 -156.87   83.05   80.34     0.002000       1.1951    3.2660    0.2535
 -156.80  123.33   88.78     0.002000       0.6614    4.4747    0.3375
 -157.54   89.72   81.85     0.002000       1.4267    3.3892    0.2045
 -157.18   88.62  103.41     0.002000       1.7989    3.3641    0.1629
 -156.48   91.70   94.17     0.002000       1.5539    3.3052    0.1931
 -156.83   90.69   99.05     0.002000       1.1945    2.5971    0.3217
 -154.92   88.93   85.77     0.002000       1.3579    2.7609    0.2665
 -156.44   90.43   95.19     0.002000       1.4336    3.1815    0.2181
 -156.35   95.03  102.52     0.002000       1.2573    2.9275    0.2703
 -156.91   90.19   99.53     0.002000       1.6346    3.4752    0.1738
 -158.43   81.48  109.57     0.002000       1.3524    4.2971    0.1700
 -147.99   87.23   85.84     0.002000       1.0020    2.0605    0.4912
 -156.57   89.94   85.49     0.002000       1.3961    3.6327    0.1954
 -155.59   84.80   85.24     0.002000       0.8739    3.8412    0.2979
 -157.51   92.86   80.17     0.002000       1.0056    5.7654    0.1695
 -157.12   93.91   93.65     0.002000       1.0062    6.0967    0.1597
 -156.77  103.62   93.57     0.002000       1.0398    5.2601    0.1799
 -157.27  117.44   89.95     0.002000       0.8555    4.6071    0.2518
 -157.93  102.44   84.00     0.002000       1.0025    5.6912    0.1724
 -156.21   95.15  103.71     0.002000       1.5150    3.0997    0.2110
 -155.40   92.88   98.28     0.002000       1.2698    2.6268    0.2999
 -151.27   93.98   99.43     0.002000       0.9935    2.8287    0.3607
 -156.45   91.65   97.08     0.002000       1.4189    3.2788    0.2137
 -157.44   89.59   82.43     0.002000       1.1312    2.5245    0.3496
 -157.87   95.06   73.40     0.002000       1.1443    4.9961    0.1725
 -154.91   97.49   95.17     0.002000       0.7946    3.8426    0.3283
 -157.13   80.24   89.92     0.002000       1.0052    5.8500    0.1670
 -159.37   72.19  104.02     0.002000       1.0986    4.5400    0.1990
 -162.85  122.29   76.95     0.002000       0.8768    4.2652    0.2657
 -156.87   95.15  101.12     0.002000       1.1369    4.7632    0.1818
 -157.80   83.71  101.09     0.002000       1.0231    5.6233    0.1712
 -155.29   90.60   82.75     0.002000       1.2667    2.3900    0.3310
 -157.23   91.41   93.35     0.002000       1.0007    6.2595    0.1562
 -150.21   91.53   93.21     0.002000       1.1086    1.9718    0.4646
 -155.37   94.18   97.00     0.002000       1.3382    2.7530    0.2710
 -157.20   88.14   79.77     0.002000       1.0702    5.3502    0.1716
 -155.08   86.36   83.70     0.002000       1.3323    2.7936    0.2685
 -155.64   93.49  101.74     0.002000       1.2877    2.7962    0.2772
 -157.37  103.31   88.54     0.002000       1.0071    5.7114    0.1709
 -154.94   92.19   92.46     0.002000       1.3440    2.6030    0.2859
 -155.51   92.33   99.42     0.002000       1.3703    2.7790    0.2620
 -157.09   88.07  108.67     0.002000       1.7759    3.5678    0.1556
 -156.37   89.46   85.83     0.002000       1.4371    3.2375    0.2138
 -156.06   91.02   96.56     0.002000       1.4537    3.5388    0.1931
 -156.75   91.14   98.70     0.002000       1.4211    3.4915    0.1997
 -156.43   88.25   83.68     0.002000       1.4297    3.2863    0.2115
 -156.48  103.56   95.68     0.002000       1.0659    4.9622    0.1863
 -155.86   89.55   92.55     0.002000       1.2937    2.4871    0.3104
 -159.24   88.72   85.76     0.002000       1.2642    2.9899    0.2623
 -156.28   88.16   85.81     0.002000       1.4190    3.2738    0.2141
 -157.31   91.00   84.12     0.002000       1.0009    6.0906    0.1608
 -156.83   90.89   97.52     0.002000       1.4809    3.5448    0.1885
 -157.61   90.57   75.27     0.002000       1.1390    4.8509    0.1781
 -155.36   87.31   87.34     0.002000       1.3097    2.4661    0.3097
 -156.46   89.93   84.15     0.002000       1.4185    3.2722    0.2141
 -155.89   93.71   94.04     0.002000       0.9898    3.8447    0.2622
 -156.81   94.05   92.25     0.002000       0.8964    3.8560    0.2879
 -157.30   93.19   88.95     0.002000       1.1729    2.5484    0.3337
 -155.08   88.89   80.82     0.002000       1.2672    2.5570    0.3092
 -156.06   78.22   80.17     0.002000       1.0881    4.1597    0.2183
 -157.39   90.28  106.60     0.002000       1.2582    4.5438    0.1722
 -157.62   83.77   97.31     0.002000       1.0018    5.9330    0.1653
 -156.10   89.29   82.63     0.002000       1.4576    3.3146    0.2059
 -159.01   86.59   99.53     0.002000       1.5715    2.8118    0.2241
 -157.93   91.56   92.05     0.002000       0.8902    3.6941    0.3020
 -158.50  107.87   81.21     0.002000       1.0179    5.2009    0.1869
 -156.51   74.02   90.50     0.002000       0.5692    4.1584    0.4221
 -154.85   87.02  107.94     0.002000       0.7454    2.4445    0.5548
 -154.08   92.27   94.13     0.002000       0.9949    3.6839    0.2748
 -157.13   90.54   94.47     0.002000       1.4334    3.6025    0.1913
 -153.80   79.62   81.66     0.002000       0.7011    3.7118    0.3858
 -156.76   88.96   81.11     0.002000       1.4419    3.4951    0.1965
 -156.36   86.48   74.05     0.002000       1.6202    3.3504    0.1821
 -157.30   87.97  109.02     0.002000       1.3296    4.6344    0.1600
 -157.86   69.98   94.46     0.002000       0.9994    5.1219    0.1933
 -155.76   92.96   95.60     0.002000       1.3344    2.6770    0.2792
 -156.63   93.52  107.19     0.002000       1.4499    3.7276    0.1827
 -157.25   87.73   84.67     0.002000       1.3686    3.4403    0.2103
 -156.33  106.02   96.33     0.002000       0.7981    3.4874    0.3576
 -152.32   92.41   94.42     0.002000       1.0327    3.1043    0.3158
 -157.49   87.57  110.16     0.002000       1.3702    4.4124    0.1631
 -157.07   88.45  110.54     0.002000       1.7139    3.6982    0.1556
 -156.67   76.41   87.77     0.002000       1.0204    5.4627    0.1768
 -157.00   89.54   71.03     0.002000       1.7209    3.3294    0.1723
 -157.68   87.43  104.22     0.002000       1.0831    5.2216    0.1742
 -157.24   81.32   91.80     0.002000       1.0020    6.0104    0.1630
 -155.44   91.16   87.54     0.002000       1.2698    2.2621    0.3491
 -157.27   91.22   96.10     0.002000       1.3935    3.2876    0.2163
 -156.81   91.67   97.72     0.002000       1.4385    3.2733    0.2107
 -156.80   86.11   76.58     0.002000       1.1813    4.5038    0.1852
 -155.53   65.56   85.72     0.002000       0.6983    4.1639    0.3426
 -152.45   92.60   93.58     0.002000       0.9544    2.8839    0.3678
 -158.27   52.10   95.25     0.002000       0.7151    4.3909    0.3187
 -156.88   92.54  103.96     0.002000       1.7096    3.2466    0.1778
 -155.88   65.16   86.17     0.002000       0.8665    4.5398    0.2523
 -155.56   86.53   79.91     0.002000       1.4339    3.0135    0.2305
 -158.03   96.41   76.46     0.002000       1.0499    5.3455    0.1756
 -156.83   97.72   99.07     0.002000       1.1097    3.4612    0.2577
 -156.19   64.47   87.00     0.002000       0.8391    4.6665    0.2532
 -156.57   91.61   98.24     0.002000       1.4384    3.3888    0.2035
 -156.77   69.51   88.46     0.002000       0.9765    4.9622    0.2040
 -155.11   94.26   95.15     0.002000       0.9060    3.9828    0.2775
 -157.01   82.95   87.12     0.002000       1.0123    5.8887    0.1645
 -156.07   60.41   92.25     0.002000       0.6329    4.3533    0.3640
 -156.46  103.29   98.18     0.002000       0.9724    3.6548    0.2790
 -156.43   90.90   95.80     0.002000       1.4197    3.2190    0.2177
 -156.34   90.56   95.39     0.002000       1.5272    3.2918    0.1976
 -157.37   90.54   81.01     0.002000       1.0129    5.7538    0.1685
 -159.05   74.39  103.90     0.002000       1.0902    4.7336    0.1921
 -156.96   87.51   71.81     0.002000       1.4396    3.7543    0.1825
 -156.34   94.48   94.96     0.002000       0.9286    3.8510    0.2785
 -160.63  106.74   70.41     0.002000       1.1844    4.1347    0.2024
 -157.84   90.83   81.87     0.002000       1.0053    5.7747    0.1684
 -157.32   88.29   77.55     0.002000       1.5668    3.1911    0.1977
 -156.12   89.19   83.01     0.002000       1.4656    3.4776    0.1949
 -154.16   85.99   84.97     0.002000       0.8648    3.8808    0.2998
 -156.77   84.34   81.91     0.002000       1.0692    5.3352    0.1724
 -156.45   81.87   77.71     0.002000       1.1533    3.9188    0.2184
 -155.80   85.45   77.28     0.002000       1.2787    2.8256    0.2761
 -156.43   81.86   79.47     0.002000       1.1261    4.5859    0.1909
 -157.63   92.15   77.11     0.002000       1.0468    5.3404    0.1760
 -155.57   85.97   78.25     0.002000       1.2767    2.7787    0.2815
 -157.35   88.94   92.83     0.002000       1.0001    6.2439    0.1567
 -156.31   89.89   90.57     0.002000       1.4503    3.1675    0.2167
 -156.46   88.96   86.27     0.002000       1.4135    3.3264    0.2114
 -156.75  105.34   90.69     0.002000       0.6724    4.2364    0.3494
 -156.57   89.27   84.89     0.002000       1.4566    3.2634    0.2088
 -154.07   89.49   90.15     0.002000       0.9998    3.7232    0.2707
 -156.41   95.98  102.46     0.002000       1.3513    3.0293    0.2423
 -157.28   90.90   96.10     0.002000       1.4535    3.2195    0.2118
 -156.31   94.28  105.48     0.002000       1.5688    3.3094    0.1906
 -156.49   85.24   73.50     0.002000       1.3972    3.5041    0.2018
 -156.30  106.80   94.73     0.002000       1.0289    4.8677    0.1971
 -156.46   97.10   90.48     0.002000       0.7470    4.1483    0.3215
 -156.21   88.74   87.52     0.002000       1.4072    3.2215    0.2196
 -156.84   94.66   89.62     0.002000       0.5988    4.0398    0.4126
 -156.07   89.52   83.97     0.002000       1.4410    3.5662    0.1933
 -154.88   90.63   90.12     0.002000       1.3928    2.8300    0.2536
 -157.28   91.96  101.89     0.002000       1.1214    5.0052    0.1752
 -160.05   94.65   94.64     0.002000       1.1965    2.7042    0.3075
 -156.49   89.71   90.24     0.002000       1.5173    3.0900    0.2121
 -159.22  110.41   78.99     0.002000       1.0439    4.8385    0.1963
 -157.42   90.53   79.91     0.002000       1.0234    5.5981    0.1715
 -156.28   89.33   85.43     0.002000       1.4969    3.1486    0.2111
 -157.08   90.55  108.85     0.002000       1.7229    3.3352    0.1718
 -155.70   93.07   94.89     0.002000       1.4302    2.6961    0.2586
 -165.16   66.91   93.11     0.002000       1.3713    1.8020    0.4060
 -155.80   90.59   93.61     0.002000       1.4118    3.3671    0.2094
 -156.90   91.13   93.53     0.002000       1.3818    3.3364    0.2153
 -156.66   90.77   92.99     0.002000       1.2249    2.6678    0.3049
 -157.62   96.14   84.35     0.002000       1.0009    6.0401    0.1621
 -156.46  107.46   93.40     0.002000       1.0201    5.0459    0.1917
 -156.20   94.69  103.79     0.002000       1.3229    2.8638    0.2627
 -155.82   87.26   85.93     0.002000       0.9275    4.0559    0.2652
 -157.87   89.62  105.30     0.002000       1.1738    4.7174    0.1774
 -154.88   96.61   88.88     0.002000       0.7449    4.0288    0.3349
 -156.44   90.75   96.34     0.002000       1.4003    3.2828    0.2163
 -156.36   88.19   84.42     0.002000       1.4850    3.2558    0.2053
 -157.80   82.30  100.46     0.002000       1.0243    5.6742    0.1695
 -155.69   84.51   83.47     0.002000       0.8536    3.9941    0.2927
 -158.37   63.95   95.29     0.002000       0.9462    4.7784    0.2197
 -157.29   91.01  101.24     0.002000       1.0857    5.3344    0.1697
 -150.99   95.05   74.60     0.002000       0.9809    1.3659    0.7550
 -156.95   88.75   71.48     0.002000       1.6779    3.5589    0.1650
 -155.19   94.08   95.17     0.002000       1.0106    3.5941    0.2759
 -157.15   87.77   79.16     0.002000       1.0926    5.2328    0.1719
 -155.94   73.18   81.44     0.002000       0.9349    3.6996    0.2869
 -156.51   84.46   79.60     0.002000       1.3274    2.9312    0.2550
 -157.03   91.61   73.81     0.002000       1.7801    3.5298    0.1568
 -155.53   93.72   94.29     0.002000       1.0310    3.6908    0.2627
 -156.85   90.26   99.11     0.002000       1.5634    3.5273    0.1792
 -152.19   90.67   90.79     0.002000       0.9910    3.2690    0.3125
 -157.64   85.05   98.76     0.002000       1.0034    5.8496    0.1674
 -154.83   91.27   92.14     0.002000       1.1395    3.3023    0.2669
 -154.98   92.39   94.07     0.002000       1.3512    2.9909    0.2472
 -158.12  123.87   87.03     0.002000       0.7571    4.4822    0.2936
 -156.35   87.58   85.43     0.002000       1.2634    2.6125    0.3021
 -157.00  102.81   90.48     0.002000       1.0147    5.7075    0.1698
 -156.54   89.92   87.80     0.002000       1.5015    3.0978    0.2137
 -156.97   89.81   91.23     0.002000       1.4646    3.2821    0.2062
 -156.52   88.68   80.69     0.002000       1.4591    3.4574    0.1965
 -155.33   85.53   79.57     0.002000       1.3335    2.8637    0.2615
 -156.82   91.30   97.26     0.002000       1.4913    3.5034    0.1894
 -157.70   91.10   75.64     0.002000       1.1089    4.9613    0.1789
 -154.55   89.59   91.01     0.002000       1.2911    2.4112    0.3224
 -157.54   92.53   93.61     0.002000       1.3464    3.3235    0.2213
 -157.30   88.05   97.30     0.002000       1.0013    6.0602    0.1617
 -156.60   90.96   94.32     0.002000       1.4444    3.2632    0.2107
 -157.97   95.18   74.02     0.002000       1.1078    5.0772    0.1753
 -158.16   83.43  114.37     0.002000       1.5760    3.6247    0.1729
 -155.84  111.73   95.48     0.002000       0.8369    4.2496    0.2791
 -157.77   98.29   83.78     0.002000       1.0014    5.9128    0.1658
 -156.51   94.30  105.24     0.002000       1.5843    3.3016    0.1890
 -155.94   91.43   92.24     0.002000       0.9651    4.0237    0.2568
 -157.18   80.15   91.13     0.002000       1.0033    5.9144    0.1656
 -156.47   87.93   79.78     0.002000       1.5341    3.3964    0.1900
 -156.82   76.19   89.46     0.002000       1.0113    5.6144    0.1735
 -156.76   88.70   81.54     0.002000       1.4795    3.4685    0.1929
 -158.58  121.61   85.03     0.002000       0.7998    4.7024    0.2648
 -156.41   93.79  106.64     0.002000       1.5514    3.4543    0.1844
 -156.95   86.20   77.93     0.002000       1.1375    4.7464    0.1823
 -157.70   90.40  105.97     0.002000       1.2255    4.5146    0.1777
 -161.33   50.18   98.96     0.002000       0.7348    4.3259    0.3140
 -156.24   91.38   90.87     0.002000       1.2438    2.2117    0.3641
 -154.99   89.87   94.88     0.002000       1.3624    2.8616    0.2563
 -158.15   61.49   95.31     0.002000       0.9027    4.7498    0.2323
 -157.27   90.72   68.85     0.002000       1.4671    4.0774    0.1648
 -157.88   88.85   87.09     0.002000       1.2934    3.1521    0.2434
 -157.49   92.90   80.35     0.002000       1.0054    5.8406    0.1672
 -156.33   89.28   88.61     0.002000       1.4322    3.2966    0.2107
 -157.15   94.45   91.69     0.002000       0.8971    3.8046    0.2914
 -157.19   88.42  107.09     0.002000       1.8038    3.3448    0.1634
 -156.61   87.09   86.22     0.002000       1.2349    2.5955    0.3111
 -156.83   86.48   74.65     0.002000       1.2558    4.1617    0.1887
 -157.81   70.29   94.09     0.002000       0.9964    5.1779    0.1917
 -156.46   93.19  101.02     0.002000       1.6860    3.2045    0.1831
 -159.02   64.89   96.29     0.002000       0.9455    4.8858    0.2143
 -156.16   59.52   90.33     0.002000       0.6044    4.3557    0.3799
 -157.20   79.41   90.50     0.002000       1.0051    5.8597    0.1667
 -156.48  104.86   95.45     0.002000       1.0576    4.8603    0.1917
 -155.05   89.55   88.43     0.002000       1.3854    2.6232    0.2750
 -156.48   98.93   97.65     0.002000       1.0899    5.1404    0.1757
 -155.47   65.06   84.50     0.002000       0.7172    3.9032    0.3558
 -156.34   91.11   82.46     0.002000       1.2714    2.3895    0.3290
 -156.09   85.48   78.45     0.002000       1.6013    3.0452    0.2033
 -155.67   67.88   82.42     0.002000       0.8595    3.9615    0.2913
 -157.05  116.96   91.57     0.002000       0.6454    4.1155    0.3745
 -153.32   88.89   88.30     0.002000       0.9852    3.1996    0.3205
 -154.93   87.60   82.56     0.002000       1.2846    2.5723    0.3032
 -157.99   96.16   77.90     0.002000       1.0176    5.4957    0.1760
 -156.53   87.83   82.76     0.002000       1.4005    3.4157    0.2075
 -154.96   88.96   87.97     0.002000       1.3860    2.9599    0.2435
 -158.11   97.18   77.22     0.002000       1.0336    5.4180    0.1759
 -156.89   87.69   78.01     0.002000       1.6168    3.2831    0.1862
 -158.64   87.96   91.86     0.002000       1.3565    3.1817    0.2292
 -156.10   89.84   84.47     0.002000       1.4336    3.6151    0.1916
 -156.97   90.54  108.52     0.002000       1.7191    3.6146    0.1585
 -157.17   91.60   91.97     0.002000       1.0002    6.3427    0.1542
 -157.58  114.17   89.04     0.002000       0.9246    4.9017    0.2183
 -161.96  100.78   95.86     0.002000       1.1922    2.2497    0.3725
 -156.54   93.55  102.60     0.002000       1.6097    3.2929    0.1865
 -157.33   93.09   68.21     0.002000       1.5588    4.0034    0.1580
 -156.24   88.30   81.36     0.002000       1.4480    3.3832    0.2026
 -155.11   96.45   97.23     0.002000       0.9256    3.7055    0.2919
 -156.32   83.98   75.11     0.002000       1.3445    3.3330    0.2209
 -155.30   85.20   81.11     0.002000       1.3920    2.9106    0.2462
 -157.60   81.19   95.88     0.002000       1.0018    5.9093    0.1661
 -155.32   85.69   83.86     0.002000       1.4439    3.0034    0.2299
 -156.87   87.79   79.28     0.002000       1.5952    3.2742    0.1893
 -156.69   95.71   93.36     0.002000       0.6641    4.0033    0.3749
 -157.28   91.00   68.90     0.002000       1.4456    4.1442    0.1646
 -158.06  108.56   84.96     0.002000       1.0041    5.3197    0.1848
 -156.41   89.15   84.96     0.002000       1.4953    3.2730    0.2030
 -157.13   87.28   87.26     0.002000       1.0016    6.2055    0.1576
 -155.45   62.90   85.40     0.002000       0.7797    4.3139    0.2957
 -156.58   97.34  102.52     0.002000       1.1797    4.1280    0.2026
 -160.23  120.57   80.00     0.002000       0.9270    4.3817    0.2454
 -156.11   92.86   91.32     0.002000       1.2845    2.4200    0.3214
 -152.54   85.44   79.48     0.002000       0.9708    3.2465    0.3208
 -159.20   89.85   91.37     0.002000       0.8453    2.7148    0.4345
 -155.86   89.37   87.64     0.002000       1.4382    3.2009    0.2162
 -155.84   92.27   96.14     0.002000       1.4262    3.2922    0.2119
 -157.17   94.05   91.47     0.002000       1.0014    6.2340    0.1568
 -158.00   72.77   95.95     0.002000       1.0042    5.3122    0.1852
 -157.11   92.68   98.38     0.002000       1.0471    5.6125    0.1671
 -153.76   84.68   80.22     0.002000       1.0337    3.2888    0.2965
 -160.52   89.68   95.24     0.002000       1.2160    2.6579    0.3079
 -157.83   86.00  113.29     0.002000       1.4325    4.0226    0.1714
 -157.26   91.33   98.61     0.002000       1.0301    5.6982    0.1672
 -155.52   83.72   83.22     0.002000       0.9041    3.7899    0.2917
 -157.68   86.43  109.44     0.002000       1.2972    4.5917    0.1656
 -156.61   88.61   88.43     0.002000       1.4928    3.2134    0.2069
 -157.28   90.84  102.22     0.002000       1.1118    5.1870    0.1705
 -157.12   89.52   81.99     0.002000       1.4594    3.5020    0.1934
 -160.12  126.35   82.84     0.002000       0.7841    4.4303    0.2870
 -156.60  121.26   88.16     0.002000       0.6239    4.4100    0.3637
 -156.45   91.57   94.21     0.002000       1.4489    3.1911    0.2151
 -158.52   92.09   85.82     0.002000       1.5103    3.0918    0.2116
 -155.94   89.47   96.82     0.002000       1.2342    2.2910    0.3543
 -154.78   91.80   95.75     0.002000       1.3169    2.8888    0.2631
 -155.75   91.69   93.77     0.002000       1.3998    3.3270    0.2138
 -157.18   89.83  110.94     0.002000       1.6251    3.8477    0.1574
 -155.94   73.58   81.56     0.002000       0.9879    4.0870    0.2450
 -155.67   93.08   93.44     0.002000       1.5552    2.9326    0.2181
 -157.08   93.40   94.01     0.002000       1.0062    6.1354    0.1587
 -156.12   88.65   83.93     0.002000       1.4586    3.4239    0.1990
 -156.78   89.61   78.20     0.002000       1.6912    3.4445    0.1695
 -156.83   95.42  102.11     0.002000       1.1594    4.4884    0.1893
 -156.22   69.65   85.57     0.002000       0.9629    4.6898    0.2190
 -157.34   89.88   99.00     0.002000       1.0151    5.7657    0.1677
 -156.98   91.00  100.19     0.002000       1.4771    3.4093    0.1965
 -157.43   97.93   94.03     0.002000       0.9693    3.1756    0.3229
 -157.14   85.03   83.92     0.002000       1.1408    2.9924    0.2910
 -157.20   91.25   99.74     0.002000       1.0520    5.5563    0.1681
 -157.90   70.88   95.68     0.002000       1.0054    5.2005    0.1893
 -160.23   97.23   85.01     0.002000       1.5116    2.5514    0.2575
 -156.83   75.93   88.19     0.002000       1.0152    5.4273    0.1787
 -156.96   92.76  106.99     0.002000       1.3707    4.0051    0.1795
 -155.81   87.02   85.39     0.002000       1.5251    3.1999    0.2037
 -156.46   88.86   81.85     0.002000       1.2037    2.3401    0.3553
 -155.17   87.99   80.19     0.002000       1.2652    2.6367    0.3001
 -156.47   83.34   77.19     0.002000       1.1778    4.2385    0.1976
 -157.40   87.94   98.31     0.002000       1.0027    5.9685    0.1640
 -159.81   93.92   92.36     0.002000       1.1570    2.7357    0.3145
 -157.87  110.93   86.99     0.002000       0.9946    5.0694    0.1960
 -154.24   90.84   90.83     0.002000       1.0004    3.4534    0.2916
 -168.33  107.49   53.81     0.002000       1.4054    1.9054    0.3737
 -157.40   90.94   80.68     0.002000       1.0119    5.7454    0.1689
 -157.87   80.95   84.58     0.002000       0.7219    3.2938    0.4187
 -156.84   92.42   94.21     0.002000       1.2402    2.8609    0.2802
 -156.29   80.26   78.99     0.002000       1.1045    3.7255    0.2405
 -157.30   90.89   82.69     0.002000       1.0031    5.9825    0.1635
 -154.78   91.24   88.83     0.002000       1.3691    2.6649    0.2743
 -157.48   89.45   97.58     0.002000       1.5229    3.4298    0.1890
 -164.25   69.82   92.92     0.002000       1.4264    1.8847    0.3724
 -156.10   94.47   99.32     0.002000       1.2775    2.7471    0.2840
 -156.32   92.49   95.87     0.002000       1.5282    3.3092    0.1962
 -157.38   93.71   90.96     0.002000       0.8695    3.7450    0.3055
