MORPHOLOGY AT STRAIN =    1.0000  FOR PHASE  2
   1.178   2.966   0.283  <-- AXES OF PHASE ELLIPSOID
 -154.30   90.21   90.00  <-- EULER ANGLES OF PHASE ELLIPSOID (deg)
   1.210   3.056   0.278  <-- AVERAGE OF GRAIN AXES FOR PHASE
   0.173   0.139   0.211  <-- STANDARD DEV OF AVG GRAIN AXES FOR PHASE
B       500
 -158.11   99.73   86.22     0.001000       1.5154    2.6343    0.2452
 -153.58  104.66   98.16     0.001000       1.1143    3.4659    0.2537
 -154.85   91.18  104.67     0.001000       1.3362    3.4601    0.2110
 -154.52   90.48   89.01     0.001000       1.3926    2.9225    0.2414
 -154.22   91.39   94.37     0.001000       1.3425    3.0056    0.2435
 -154.57   86.69   87.45     0.001000       1.0145    4.1744    0.2304
 -152.47   88.24   88.12     0.001000       1.2836    2.7586    0.2785
 -154.02   79.93   83.67     0.001000       1.0901    3.8625    0.2322
 -154.61   89.19   84.88     0.001000       1.3716    3.0764    0.2323
 -156.14   78.98  107.21     0.001000       1.4599    3.0640    0.2188
 -154.92   89.36  102.97     0.001000       1.1558    3.7743    0.2240
 -154.72   94.76   90.39     0.001000       1.0119    4.1767    0.2308
 -155.15   89.45   84.46     0.001000       1.0827    2.8642    0.3175
 -154.33   94.82   94.93     0.001000       1.2404    2.6888    0.2953
 -154.65  100.27   91.47     0.001000       0.7155    3.2983    0.4190
 -159.43  105.64   79.69     0.001000       1.1344    2.1252    0.4136
 -154.76   85.46   96.76     0.001000       1.0073    4.1211    0.2353
 -158.25   70.06  106.79     0.001000       1.1923    2.7124    0.3059
 -151.26   89.15  102.40     0.001000       0.7583    2.9182    0.4514
 -155.86  107.19   81.68     0.001000       1.0085    3.7961    0.2563
 -154.38   84.62   82.35     0.001000       1.0579    3.0072    0.3090
 -153.24  100.44  101.12     0.001000       1.2029    3.4319    0.2371
 -155.15   96.53   84.38     0.001000       1.0041    4.1048    0.2369
 -154.46   94.04  103.13     0.001000       1.2711    3.4752    0.2210
 -153.80   90.50   90.30     0.001000       1.3583    2.9838    0.2427
 -157.92   93.35   87.81     0.001000       1.2365    2.8305    0.2805
 -154.73   91.44   92.16     0.001000       1.3445    3.0715    0.2374
 -154.04   88.55   83.69     0.001000       1.4534    3.0161    0.2232
 -161.11   78.44   88.80     0.001000       1.0515    2.1266    0.4458
 -155.55   91.94   96.73     0.001000       1.4677    2.9658    0.2245
 -154.31   91.90   91.73     0.001000       1.3349    3.0405    0.2420
 -153.68   83.70   77.28     0.001000       1.3876    2.9780    0.2367
 -153.96   86.99   85.21     0.001000       1.4719    2.8945    0.2300
 -159.08  102.67   82.55     0.001000       1.1520    2.1959    0.3934
 -154.88   89.83   96.26     0.001000       1.5735    2.9891    0.2075
 -153.85   84.31   81.47     0.001000       1.2158    2.7551    0.2939
 -153.82   97.95  102.48     0.001000       1.2859    3.2466    0.2343
 -154.77  118.57   85.75     0.001000       0.7227    3.4187    0.4010
 -154.54   92.47   90.23     0.001000       1.0322    3.1764    0.3007
 -154.29   87.28   86.37     0.001000       1.2389    2.6416    0.3013
 -153.84   62.43   89.68     0.001000       0.8505    3.6017    0.3219
 -155.52   88.31   88.61     0.001000       1.3608    3.0138    0.2387
 -154.04   91.65   92.58     0.001000       1.3542    3.0113    0.2408
 -154.92   91.49   84.08     0.001000       1.5944    2.9651    0.2064
 -154.40   92.06   93.09     0.001000       1.4348    2.9713    0.2299
 -154.04   88.13   90.87     0.001000       1.2433    2.5421    0.3124
 -157.95  113.56   74.15     0.001000       1.0341    3.2525    0.2936
 -153.89   91.99   93.29     0.001000       1.3532    3.0143    0.2410
 -154.76   90.27   83.41     0.001000       1.5217    3.0125    0.2131
 -154.96   93.01   77.08     0.001000       1.6430    3.0004    0.1976
 -155.63   99.27   77.87     0.001000       1.0563    3.8341    0.2418
 -154.05   91.01   93.02     0.001000       1.3516    3.1025    0.2340
 -154.80   94.70   94.46     0.001000       1.2001    2.7576    0.2973
 -154.54   87.09   78.57     0.001000       1.1348    3.7773    0.2280
 -153.63   66.30   94.91     0.001000       0.7097    3.4135    0.4099
 -156.62   71.90  104.69     0.001000       1.1339    2.6776    0.3266
 -149.47   80.96   77.42     0.001000       0.9896    2.8685    0.3515
 -154.23   86.55   76.67     0.001000       1.4960    3.0414    0.2144
 -154.92   92.03   87.32     0.001000       1.0014    4.1897    0.2325
 -155.32   92.66   87.88     0.001000       1.1337    2.7366    0.3176
 -154.82   90.56   96.67     0.001000       1.0215    4.0946    0.2334
 -154.07   91.27   91.16     0.001000       1.3757    3.0043    0.2376
 -149.37   85.60   85.07     0.001000       1.0273    2.9152    0.3337
 -155.21   88.23   82.49     0.001000       1.0290    4.0205    0.2358
 -154.17   89.32   87.70     0.001000       1.3842    2.9783    0.2382
 -154.39   92.07   93.51     0.001000       1.4186    3.0147    0.2288
 -154.33   95.04  103.02     0.001000       1.2932    3.3994    0.2222
 -154.58   96.00   97.23     0.001000       1.1430    2.9209    0.2940
 -153.26  108.66   96.48     0.001000       1.0708    3.5306    0.2596
 -154.99   95.61   93.74     0.001000       0.9508    3.0343    0.3414
 -154.18   88.44   87.55     0.001000       1.2376    2.6175    0.3045
 -153.19   92.40   91.30     0.001000       1.3208    2.9790    0.2499
 -155.00   82.25   98.15     0.001000       1.0161    4.0241    0.2392
 -152.73   88.26   86.70     0.001000       1.1601    3.0375    0.2809
 -154.53  100.67   93.36     0.001000       1.0628    3.9739    0.2312
 -154.99   86.36   96.34     0.001000       1.0051    4.1139    0.2362
 -154.78   90.52  104.48     0.001000       1.5581    3.1323    0.1997
 -154.65   90.88   98.65     0.001000       1.6152    2.9874    0.2021
 -154.03   91.50   94.75     0.001000       1.3621    3.0871    0.2333
 -154.28   94.46  103.63     0.001000       1.3434    3.3196    0.2189
 -153.60   92.59   94.38     0.001000       1.4120    2.9760    0.2332
 -154.41   78.64   90.67     0.001000       1.0261    4.0548    0.2349
 -155.02   85.68  105.21     0.001000       1.2932    3.5542    0.2126
 -154.53   91.79   93.68     0.001000       1.3759    2.9896    0.2386
 -154.84   87.80   89.17     0.001000       1.0048    4.1907    0.2317
 -154.27   90.99   94.60     0.001000       1.3466    3.0377    0.2400
 -152.96   92.19   89.96     0.001000       1.3257    2.9628    0.2504
 -154.43   87.42   87.24     0.001000       1.0701    3.1521    0.2924
 -153.18   95.14   96.68     0.001000       1.2839    2.7596    0.2780
 -152.89   87.39   84.39     0.001000       1.2452    2.6141    0.3035
 -154.89   91.80  105.00     0.001000       1.3486    3.3628    0.2153
 -155.52   79.28  101.28     0.001000       1.0553    3.8339    0.2422
 -159.46   75.62   89.34     0.001000       1.2577    2.3062    0.3413
 -153.71  100.86  100.08     0.001000       1.1720    3.1133    0.2686
 -153.83   91.64   92.29     0.001000       1.3489    3.0233    0.2410
 -153.80   83.52   77.29     0.001000       1.2340    3.4678    0.2286
 -156.65   98.22   68.74     0.001000       1.4982    2.9431    0.2218
 -149.21   93.62   96.51     0.001000       1.2168    2.6689    0.3078
 -158.50  103.12   82.61     0.001000       1.4665    2.4323    0.2759
 -152.11   92.81   90.74     0.001000       1.2725    2.7848    0.2784
 -150.13   96.96  100.61     0.001000       1.0370    2.9264    0.3286
 -152.60   92.05   90.85     0.001000       1.3121    2.9299    0.2560
 -154.48   90.94   94.90     0.001000       1.3978    3.0731    0.2280
 -154.60   89.91   79.86     0.001000       1.6023    2.9912    0.2035
 -154.90   91.14   90.85     0.001000       1.1797    2.6983    0.3096
 -153.97   90.89   90.33     0.001000       1.3654    3.0128    0.2388
 -153.89   76.08   87.35     0.001000       1.0568    3.9157    0.2365
 -154.73   90.06   83.90     0.001000       1.4564    3.0416    0.2208
 -153.23   94.44   94.54     0.001000       1.3864    2.8508    0.2487
 -154.19   90.08   87.36     0.001000       1.3364    2.9815    0.2467
 -154.26   87.35   74.72     0.001000       1.3649    3.3266    0.2149
 -153.58  109.55   87.99     0.001000       0.7056    3.4595    0.4057
 -158.53   77.86   96.98     0.001000       1.5442    2.4491    0.2596
 -154.75   93.60   96.24     0.001000       1.0946    2.9173    0.3080
 -155.84   91.28   88.68     0.001000       1.4054    2.9339    0.2374
 -154.84   90.54   84.52     0.001000       1.4910    2.9951    0.2189
 -148.45   96.75   98.39     0.001000       0.8903    2.9357    0.3833
 -155.48   95.05   75.84     0.001000       1.6239    2.9995    0.2000
 -154.29   86.97   81.23     0.001000       1.1681    2.7604    0.3056
 -153.39  105.10   98.67     0.001000       1.1159    3.3793    0.2600
 -154.27   81.38   84.91     0.001000       1.0659    3.9656    0.2311
 -152.58   90.94   90.22     0.001000       1.2697    2.6994    0.2879
 -153.49   61.98   90.28     0.001000       0.7867    3.5430    0.3546
 -154.18  108.53   76.85     0.001000       0.7084    3.0974    0.4549
 -153.90   82.54   78.84     0.001000       1.1792    3.5856    0.2313
 -155.03  116.56   86.45     0.001000       0.9375    3.6237    0.2899
 -157.28   84.88   89.87     0.001000       1.0181    2.1424    0.4581
 -154.25   84.86   78.36     0.001000       1.4560    2.9131    0.2305
 -153.46   96.05   98.79     0.001000       1.3160    2.8280    0.2641
 -154.68   90.04  102.97     0.001000       1.1674    3.7655    0.2223
 -152.21   87.78   86.32     0.001000       1.2800    2.7683    0.2785
 -154.89   89.83   87.85     0.001000       1.0081    3.1784    0.3077
 -155.03   89.42   93.06     0.001000       1.1680    2.6926    0.3134
 -157.15  104.25   70.13     0.001000       1.3952    2.9438    0.2390
 -153.67   83.46   78.75     0.001000       1.3076    2.8813    0.2604
 -159.29   70.30  102.69     0.001000       1.2235    2.3249    0.3490
 -159.51  108.36   75.47     0.001000       1.4020    2.4357    0.2888
 -154.05   90.37   91.36     0.001000       1.3505    3.0081    0.2419
 -159.64   87.69   86.68     0.001000       1.1698    2.7093    0.3105
 -154.58   95.67   97.33     0.001000       1.1752    2.8769    0.2903
 -155.05   85.39  106.05     0.001000       1.4148    3.3857    0.2037
 -155.36   94.14   77.48     0.001000       1.6587    2.9366    0.2000
 -153.46   94.16   92.00     0.001000       1.4072    2.8552    0.2441
 -154.52   73.82   91.09     0.001000       1.0279    3.8819    0.2456
 -154.25   88.60   83.06     0.001000       1.2488    2.6631    0.2963
 -154.06   89.16   84.36     0.001000       1.3541    3.0232    0.2399
 -154.65   90.61   95.24     0.001000       1.3786    3.0827    0.2305
 -159.93   73.24   88.52     0.001000       1.0447    2.0512    0.4660
 -154.33   90.81   89.55     0.001000       1.2239    2.5891    0.3115
 -154.98   74.14   97.91     0.001000       1.1323    2.2378    0.3938
 -153.25   83.49   79.92     0.001000       1.3294    2.8350    0.2605
 -154.68   91.85   93.66     0.001000       1.3894    2.9776    0.2372
 -152.34   97.90   96.13     0.001000       0.9924    3.1157    0.3206
 -153.98   86.06   88.21     0.001000       0.9828    3.2096    0.3130
 -147.13   87.64   79.18     0.001000       1.2398    2.4137    0.3356
 -154.97   92.93   72.54     0.001000       1.4362    3.3064    0.2056
 -153.93   63.42   89.82     0.001000       0.8988    3.5786    0.3065
 -153.51  100.47   99.31     0.001000       1.1593    3.6558    0.2308
 -154.52   90.31   88.38     0.001000       1.3795    2.9578    0.2406
 -153.34   90.43   88.78     0.001000       1.3351    3.0041    0.2450
 -153.83   95.95   99.04     0.001000       1.2106    2.8298    0.2872
 -154.89   89.41   94.66     0.001000       1.5292    3.0264    0.2109
 -153.48   95.15   95.31     0.001000       1.0112    3.1843    0.3070
 -153.97   79.68   81.25     0.001000       1.0679    3.1294    0.2935
 -147.49   97.97  104.55     0.001000       1.0685    2.4941    0.3765
 -154.54   95.70   95.07     0.001000       1.0012    3.0696    0.3200
 -154.91   91.44   72.92     0.001000       1.4011    3.3509    0.2079
 -154.72   83.97   94.47     0.001000       1.0047    4.1537    0.2340
 -160.72   84.78   88.77     0.001000       1.0336    2.5380    0.3770
 -155.30   89.66   91.23     0.001000       1.4780    3.0085    0.2197
 -154.36   90.70   94.33     0.001000       1.3358    2.9980    0.2454
 -154.99   87.63  103.61     0.001000       1.1669    3.7557    0.2231
 -154.17   94.74  101.36     0.001000       1.1825    3.6981    0.2234
 -148.69   90.86   90.51     0.001000       1.0032    2.9373    0.3401
 -155.78   60.27   98.19     0.001000       0.8737    3.4592    0.3274
 -154.34   89.48   90.04     0.001000       1.4012    2.9228    0.2399
 -154.28   89.40   85.62     0.001000       1.3730    3.0285    0.2357
 -153.34   84.26   79.86     0.001000       1.2735    2.8207    0.2738
 -152.80   94.14   92.65     0.001000       1.0523    3.1338    0.3001
 -156.24   88.53   90.07     0.001000       1.4456    2.9749    0.2271
 -155.51   88.25   78.83     0.001000       1.5402    2.9778    0.2125
 -155.90   92.26   91.18     0.001000       1.2852    3.0104    0.2535
 -154.50   83.33   83.49     0.001000       1.0540    3.0303    0.3074
 -149.97   82.21   83.04     0.001000       0.7527    3.1217    0.4244
 -154.91   89.08   84.68     0.001000       1.3602    3.0623    0.2353
 -154.93   89.87   94.44     0.001000       1.5433    2.9914    0.2115
 -154.00   91.98   90.45     0.001000       1.4203    2.9665    0.2328
 -154.87   90.65   95.37     0.001000       1.1411    2.6538    0.3259
 -153.20   88.68   87.59     0.001000       1.2693    2.6611    0.2921
 -154.31   90.14   92.50     0.001000       1.3554    2.9522    0.2457
 -154.35   94.49   97.88     0.001000       1.1611    2.8025    0.3026
 -154.70   90.53   95.19     0.001000       1.4287    3.0667    0.2233
 -155.45   87.02   98.67     0.001000       1.6819    2.8738    0.2016
 -159.82   85.07   86.65     0.001000       1.1736    2.6481    0.3169
 -153.39   90.60   87.20     0.001000       1.3607    3.0939    0.2334
 -150.48   84.31   81.39     0.001000       1.0806    2.9202    0.3156
 -154.81   91.14   76.83     0.001000       1.1261    3.8053    0.2282
 -154.53   96.19   93.81     0.001000       1.0414    4.0838    0.2295
 -154.41  111.15   91.32     0.001000       1.0303    3.6917    0.2578
 -156.68  122.67   82.88     0.001000       0.7400    3.3716    0.3970
 -156.06  105.21   78.96     0.001000       1.0195    3.7679    0.2554
 -153.87   96.46   98.73     0.001000       1.3592    2.8010    0.2575
 -153.68   93.12   94.91     0.001000       1.2232    2.5770    0.3134
 -162.43   88.85   91.38     0.001000       1.1022    2.3723    0.3787
 -154.30   91.18   93.94     0.001000       1.3467    2.9902    0.2440
 -155.28   90.13   85.46     0.001000       1.1046    2.6939    0.3315
 -154.82   91.89   73.45     0.001000       1.5541    3.1340    0.2002
 -148.61   99.97  101.59     0.001000       0.9906    2.7664    0.3648
 -154.79   75.30   91.90     0.001000       1.0228    3.9236    0.2440
 -156.18   80.84  107.15     0.001000       1.6419    2.7146    0.2194
 -159.87  113.06   67.28     0.001000       1.1482    2.8385    0.3035
 -153.57  101.42  100.52     0.001000       1.1898    3.4186    0.2407
 -154.93   87.05  105.85     0.001000       1.3381    3.4869    0.2094
 -153.71   91.28   85.15     0.001000       1.2108    2.4773    0.3298
 -154.64   92.47   94.11     0.001000       1.0182    4.1695    0.2297
 -161.29   97.04   89.80     0.001000       1.0090    2.4854    0.3948
 -153.59   94.13   94.07     0.001000       1.2582    2.6519    0.2957
 -154.14   84.26   78.85     0.001000       1.1663    3.6777    0.2279
 -153.09   86.97   86.09     0.001000       1.2691    2.6615    0.2921
 -153.73   93.08   97.16     0.001000       1.2271    2.6972    0.2980
 -155.27  108.71   85.19     0.001000       1.0102    3.8396    0.2527
 -153.23   92.50   89.90     0.001000       1.2636    2.5934    0.3012
 -153.44   92.35   95.05     0.001000       1.2904    2.6954    0.2832
 -154.65   89.66   96.44     0.001000       1.5844    2.9998    0.2053
 -154.00   90.17   87.22     0.001000       1.3612    2.9663    0.2435
 -153.45   90.51   93.55     0.001000       1.3727    3.0344    0.2360
 -154.57   90.81   95.30     0.001000       1.3424    3.0750    0.2376
 -154.17   88.98   86.62     0.001000       1.3532    3.0020    0.2418
 -153.89  111.10   93.51     0.001000       1.0365    3.6027    0.2629
 -154.46   90.31   90.02     0.001000       1.2113    2.6084    0.3123
 -156.84   89.32   87.07     0.001000       1.2819    3.0321    0.2519
 -153.80   88.51   87.94     0.001000       1.3377    3.0030    0.2446
 -154.67   89.64   82.06     0.001000       1.0304    4.0616    0.2334
 -154.56   91.14   94.58     0.001000       1.3622    3.0947    0.2325
 -154.54   87.26   75.39     0.001000       1.3187    3.3834    0.2188
 -153.86   87.71   89.14     0.001000       1.2467    2.5368    0.3123
 -154.10   90.47   86.62     0.001000       1.3497    3.0074    0.2418
 -151.54   93.98   95.57     0.001000       1.0633    3.0797    0.3034
 -152.91   94.24   94.44     0.001000       1.0978    3.0960    0.2911
 -155.28   92.80   88.29     0.001000       1.1431    2.7167    0.3174
 -153.21   89.18   83.64     0.001000       1.2103    2.5332    0.3226
 -152.87   71.16   82.85     0.001000       0.9804    3.3601    0.2987
 -154.27   93.67  104.31     0.001000       1.4065    3.2461    0.2136
 -155.24   83.97  101.52     0.001000       1.0796    3.8694    0.2342
 -153.95   90.11   86.01     0.001000       1.3721    2.9716    0.2412
 -156.14   89.91   93.69     0.001000       1.3825    2.9593    0.2393
 -154.75   92.83   92.82     0.001000       0.9918    3.2393    0.3069
 -156.53  104.15   71.71     0.001000       1.3143    3.1719    0.2354
 -151.28  100.89   97.08     0.001000       0.9126    3.0909    0.3522
 -160.04   80.17   90.10     0.001000       1.3462    2.3913    0.3061
 -149.41   89.96   95.53     0.001000       0.9942    2.4330    0.4147
 -154.07   90.16   92.53     0.001000       1.3701    3.1263    0.2288
 -159.48  109.00   73.20     0.001000       1.0354    2.5420    0.3776
 -154.58   89.60   84.19     0.001000       1.3530    3.0760    0.2356
 -153.78   85.15   79.86     0.001000       1.4799    2.8894    0.2287
 -154.47   89.81  103.19     0.001000       1.6132    3.0703    0.1968
 -157.07   65.41  101.72     0.001000       0.9963    3.3997    0.2914
 -154.23   92.61   92.10     0.001000       1.2559    2.6445    0.2968
 -153.69   96.73  101.69     0.001000       1.3870    3.0022    0.2349
 -154.46   87.98   86.06     0.001000       1.3391    3.0880    0.2372
 -154.18   91.75   89.80     0.001000       0.7637    3.2911    0.3938
 -160.53  104.89   87.63     0.001000       1.1019    2.0883    0.4333
 -154.84   89.46  102.10     0.001000       1.6351    3.0047    0.1984
 -154.62   89.87   98.22     0.001000       1.6111    2.9914    0.2024
 -154.23   69.38   90.23     0.001000       1.0160    3.7410    0.2583
 -154.65   88.64   81.61     0.001000       1.5640    2.9226    0.2137
 -154.89   89.77  105.74     0.001000       1.4012    3.3820    0.2059
 -154.94   77.26   94.20     0.001000       1.0121    3.9840    0.2428
 -153.98   91.64   88.10     0.001000       1.2158    2.4388    0.3337
 -154.39   91.66   93.25     0.001000       1.3540    3.0221    0.2400
 -154.50   91.62   94.11     0.001000       1.3650    2.9883    0.2407
 -153.15   80.26   77.57     0.001000       1.2247    3.2999    0.2424
 -152.88   87.39   90.46     0.001000       0.7421    3.3385    0.4003
 -158.93   74.48   91.81     0.001000       1.2454    2.2558    0.3530
 -160.28   61.53  107.33     0.001000       0.9024    2.6121    0.4229
 -154.59   93.76   96.35     0.001000       1.5553    2.8667    0.2191
 -154.22   60.66   91.80     0.001000       0.7688    3.4754    0.3702
 -153.19   86.71   84.22     0.001000       1.3662    2.8045    0.2565
 -154.96   92.66   72.59     0.001000       1.4216    3.3272    0.2064
 -154.18   99.28   95.45     0.001000       0.9712    3.1460    0.3218
 -153.60   61.75   91.00     0.001000       0.7747    3.5468    0.3598
 -154.30   91.27   94.65     0.001000       1.3561    3.0292    0.2390
 -155.32   61.14   93.40     0.001000       0.8832    3.5493    0.3146
 -149.06   96.09   95.49     0.001000       0.9441    2.9823    0.3554
 -154.38   78.50   87.76     0.001000       1.0478    3.9719    0.2349
 -147.63   98.00   97.62     0.001000       0.8877    2.8162    0.4011
 -154.03  109.64   93.37     0.001000       0.8096    3.3114    0.3681
 -154.28   90.54   93.03     0.001000       1.3471    2.9656    0.2461
 -154.17   89.98   90.32     0.001000       1.4025    2.9369    0.2387
 -154.71   88.77   78.78     0.001000       1.0968    3.8592    0.2309
 -155.99   81.86  107.72     0.001000       1.6289    2.8004    0.2142
 -153.87   84.55   76.89     0.001000       1.4154    3.0214    0.2285
 -152.24   96.16   97.42     0.001000       1.0190    3.1099    0.3130
 -156.87   95.55   83.25     0.001000       1.5576    2.8344    0.2210
 -155.36   89.07   79.73     0.001000       1.0629    3.9323    0.2334
 -155.37   88.34   84.25     0.001000       1.4732    2.9364    0.2261
 -153.60   90.05   85.82     0.001000       1.3747    3.0116    0.2375
 -147.62   89.35   80.50     0.001000       0.8399    2.7845    0.4299
 -153.54   78.35   81.74     0.001000       1.1283    3.6888    0.2352
 -153.47   77.36   80.91     0.001000       1.0810    3.1909    0.2845
 -153.91   86.77   81.27     0.001000       1.2003    2.7212    0.3019
 -153.07   75.35   80.42     0.001000       1.1245    3.3961    0.2568
 -154.84   89.92   74.82     0.001000       1.2522    3.5613    0.2190
 -153.74   87.26   81.92     0.001000       1.2111    2.6840    0.3036
 -154.90   88.79   94.00     0.001000       1.0026    4.1709    0.2333
 -154.08   90.07   89.87     0.001000       1.3608    2.9448    0.2455
 -153.83   89.61   87.21     0.001000       1.3524    3.0009    0.2423
 -153.03   89.11   89.88     0.001000       0.9147    3.2540    0.3328
 -154.14   89.46   87.32     0.001000       1.3723    3.0079    0.2375
 -146.20   90.14   90.23     0.001000       1.0019    2.6250    0.3833
 -154.30   97.09   97.56     0.001000       1.2115    2.8206    0.2875
 -154.50   91.61   92.85     0.001000       1.3794    2.9921    0.2378
 -153.70   96.24   99.28     0.001000       1.4128    2.8738    0.2413
 -153.59   82.31   77.95     0.001000       1.2945    2.9562    0.2560
 -153.99  114.92   91.13     0.001000       0.9519    3.6041    0.2867
 -152.52   89.43   89.90     0.001000       0.9774    3.2041    0.3166
 -153.71   89.12   88.53     0.001000       1.3203    2.9927    0.2488
 -152.36   81.46   83.47     0.001000       0.9426    3.1432    0.3346
 -153.31   90.26   86.29     0.001000       1.3731    3.0466    0.2350
 -152.40   91.14   89.02     0.001000       1.2979    2.7231    0.2790
 -154.18   96.26  101.95     0.001000       1.2313    3.4962    0.2270
 -157.22   93.34   92.37     0.001000       1.2545    2.9536    0.2645
 -154.35   89.57   89.88     0.001000       1.4015    2.9216    0.2400
 -156.89  101.80   73.69     0.001000       1.5518    2.8286    0.2228
 -154.77   88.60   77.82     0.001000       1.1331    3.7723    0.2286
 -154.14   90.02   87.28     0.001000       1.3901    2.9364    0.2408
 -154.74   92.06   97.39     0.001000       1.5726    2.9125    0.2132
 -153.73   93.12   92.56     0.001000       1.3119    2.6788    0.2801
 -158.25   86.20   90.37     0.001000       1.1937    2.7901    0.2951
 -153.00   90.83   90.89     0.001000       1.3223    3.0014    0.2478
 -153.98   91.22   91.92     0.001000       1.3475    3.0239    0.2412
 -154.94   91.08   90.74     0.001000       1.1509    2.7584    0.3103
 -155.26   96.78   81.01     0.001000       1.0134    4.0164    0.2401
 -154.25  115.39   89.62     0.001000       0.9501    3.6483    0.2838
 -154.19   93.99   97.90     0.001000       1.2387    2.7513    0.2888
 -150.91   86.41   86.86     0.001000       0.9836    3.1387    0.3226
 -154.94   93.24  104.43     0.001000       1.3579    3.3305    0.2156
 -148.25   87.42   86.86     0.001000       1.0488    2.8028    0.3411
 -154.24   90.38   93.22     0.001000       1.3344    3.0034    0.2452
 -153.71   88.09   87.48     0.001000       1.3923    2.9717    0.2369
 -154.96   85.79  105.82     0.001000       1.3717    3.4458    0.2066
 -150.58   83.16   82.23     0.001000       0.9466    3.1119    0.3381
 -158.45   62.88  104.94     0.001000       0.9863    3.1325    0.3204
 -154.29   94.34  102.21     0.001000       1.2132    3.6335    0.2215
 -159.13   92.61   87.78     0.001000       1.1967    2.7983    0.2934
 -154.52   87.70   79.49     0.001000       1.5594    2.9949    0.2087
 -149.89   94.36   97.85     0.001000       1.1840    2.7717    0.3040
 -153.82   83.22   78.43     0.001000       1.1871    3.6190    0.2276
 -153.75   69.49   86.42     0.001000       0.7709    3.3402    0.3836
 -154.55   85.34   83.16     0.001000       1.2049    2.8017    0.2911
 -154.58   90.60   82.92     0.001000       1.5513    3.0243    0.2081
 -150.87   93.14   95.05     0.001000       1.1926    2.8843    0.2892
 -154.70   90.44   95.17     0.001000       1.4076    3.0722    0.2264
 -161.73  100.67   88.80     0.001000       1.1515    2.1796    0.3959
 -155.09   86.49  102.98     0.001000       1.1400    3.7935    0.2261
 -149.10   91.27   92.26     0.001000       1.2868    2.5899    0.3000
 -152.46   92.80   91.17     0.001000       1.2898    2.7828    0.2746
 -154.37  106.89   80.13     0.001000       0.6504    3.1337    0.4886
 -154.73   88.11   88.32     0.001000       1.2008    2.6782    0.3065
 -154.70  108.88   87.75     0.001000       1.0235    3.8412    0.2493
 -154.51   90.39   88.79     0.001000       1.3866    2.9351    0.2414
 -154.06   90.73   89.95     0.001000       1.3873    2.9992    0.2360
 -154.12   89.42   84.41     0.001000       1.3774    3.0485    0.2335
 -153.23   86.53   82.27     0.001000       1.2441    2.7112    0.2925
 -154.42   91.49   94.61     0.001000       1.3660    3.0904    0.2322
 -154.75   87.95   74.86     0.001000       1.2920    3.4206    0.2210
 -152.91   89.83   90.17     0.001000       1.2248    2.4525    0.3295
 -154.78   92.38   92.35     0.001000       1.3288    3.0601    0.2413
 -154.66   88.92  100.08     0.001000       1.0604    3.9884    0.2311
 -154.08   90.94   92.15     0.001000       1.3695    2.9799    0.2408
 -154.96   92.14   72.70     0.001000       1.5162    3.1833    0.2021
 -155.24   87.64   95.73     0.001000       1.6601    2.8607    0.2053
 -153.70  115.18   90.36     0.001000       0.7399    3.4791    0.3840
 -155.56   99.37   79.67     0.001000       1.0253    3.9172    0.2437
 -153.96   95.51   97.95     0.001000       1.4818    2.8751    0.2295
 -151.34   92.13   91.67     0.001000       0.9969    3.1651    0.3152
 -154.88   75.42   93.55     0.001000       1.0153    3.9337    0.2453
 -153.86   87.91   84.19     0.001000       1.4414    2.9915    0.2270
 -154.50   69.46   92.41     0.001000       1.0079    3.7750    0.2581
 -154.40   89.19   84.21     0.001000       1.3638    3.0769    0.2336
 -155.84  120.07   78.24     0.001000       0.7353    3.1926    0.4244
 -153.68   96.22  100.33     0.001000       1.4287    2.9192    0.2346
 -153.56   80.95   78.25     0.001000       1.1984    3.4217    0.2387
 -154.69   94.18  104.03     0.001000       1.3780    3.2587    0.2172
 -159.02   64.64  108.80     0.001000       0.8360    2.9987    0.3969
 -154.53   91.62   89.92     0.001000       1.1996    2.4721    0.3333
 -152.45   90.07   92.45     0.001000       1.2811    2.7359    0.2813
 -158.86   60.78  106.39     0.001000       0.9793    2.9704    0.3411
 -154.61   89.54   77.30     0.001000       1.5922    3.0343    0.2018
 -155.02   89.43   87.87     0.001000       1.3089    3.0205    0.2483
 -154.69   91.17   76.97     0.001000       1.1242    3.8383    0.2265
 -153.79   89.70   88.63     0.001000       1.3584    2.9855    0.2425
 -153.52   93.54   93.11     0.001000       1.1034    3.1175    0.2872
 -154.91   89.80   95.14     0.001000       1.5260    2.9960    0.2136
 -154.86   87.72   88.30     0.001000       1.1909    2.6667    0.3104
 -153.30   81.46   76.96     0.001000       1.2730    3.1661    0.2430
 -156.85   65.31  100.81     0.001000       0.9739    3.4636    0.2925
 -154.05   94.31   94.96     0.001000       1.5148    2.8558    0.2263
 -157.35   61.87  103.44     0.001000       0.9266    3.2989    0.3240
 -150.06  100.88   96.62     0.001000       0.8778    3.0609    0.3707
 -154.82   74.33   92.76     0.001000       1.0169    3.9234    0.2455
 -154.05  112.67   92.78     0.001000       1.0079    3.5797    0.2722
 -153.11   89.93   87.71     0.001000       1.2830    2.6150    0.2941
 -153.25  106.22   97.08     0.001000       1.1097    3.6133    0.2444
 -153.71   81.48   90.59     0.001000       0.6983    3.3377    0.4251
 -154.59   91.68   84.83     0.001000       1.2068    2.5538    0.3204
 -153.51   85.07   82.57     0.001000       1.4300    2.7761    0.2469
 -154.15   68.53   87.54     0.001000       0.7125    3.3951    0.4082
 -153.64   81.43   85.77     0.001000       0.8102    3.3270    0.3667
 -158.45  101.91   79.81     0.001000       1.1083    2.0510    0.4396
 -153.07   87.72   84.93     0.001000       1.2318    2.5332    0.3169
 -155.18   93.49   72.94     0.001000       1.2744    3.5090    0.2186
 -154.16   88.65   84.60     0.001000       1.3312    3.0474    0.2422
 -152.30   88.72   89.27     0.001000       1.2987    2.7926    0.2718
 -155.08   93.48   72.33     0.001000       1.3775    3.3802    0.2098
 -154.63   87.20   84.56     0.001000       1.5199    2.9200    0.2201
 -156.14   87.66   90.81     0.001000       1.3033    3.0814    0.2436
 -153.23   90.50   86.80     0.001000       1.3703    3.0571    0.2348
 -154.60   91.94   99.37     0.001000       1.5962    2.9904    0.2042
 -154.57   92.47   92.29     0.001000       1.0098    4.2063    0.2296
 -157.16  121.50   82.35     0.001000       0.8206    3.4799    0.3458
 -157.45   93.34   90.27     0.001000       1.2212    2.8948    0.2777
 -153.97   94.73   96.30     0.001000       1.4895    2.8982    0.2264
 -154.51   90.99   79.77     0.001000       1.6180    3.0120    0.2001
 -153.61   88.85   85.31     0.001000       1.3792    3.0007    0.2371
 -149.62   98.01  101.86     0.001000       1.0474    2.8412    0.3354
 -153.64   81.52   79.38     0.001000       1.2089    2.9245    0.2776
 -153.00   85.86   83.20     0.001000       1.2714    2.7278    0.2843
 -155.45   79.45  100.16     0.001000       1.0390    3.8652    0.2440
 -152.85   85.86   85.85     0.001000       1.3325    2.7709    0.2667
 -154.59   87.35   85.43     0.001000       1.5015    2.9314    0.2220
 -152.13   99.47   97.94     0.001000       0.9217    3.1595    0.3405
 -154.71   89.88   76.98     0.001000       1.6061    3.0290    0.2004
 -156.70  114.05   78.55     0.001000       0.9949    3.5396    0.2798
 -154.28   89.60   87.39     0.001000       1.3769    2.9804    0.2394
 -154.48   84.92   86.96     0.001000       1.0266    4.1337    0.2300
 -153.66   66.04   91.20     0.001000       0.7056    3.4255    0.4098
 -153.50  102.65   99.95     0.001000       1.1511    3.2043    0.2658
 -158.27  106.63   71.72     0.001000       1.4314    2.6466    0.2597
 -154.57   92.83   89.09     0.001000       1.2252    2.5647    0.3141
 -161.11  102.47   83.60     0.001000       1.2130    2.2270    0.3673
 -155.26   86.99   86.67     0.001000       1.0074    3.1893    0.3067
 -153.06   89.51   88.32     0.001000       1.3394    2.9464    0.2489
 -153.18   92.43   92.61     0.001000       1.3514    2.9353    0.2478
 -154.63   95.91   91.06     0.001000       1.0200    4.1560    0.2301
 -156.51   70.88  102.84     0.001000       1.0467    3.4936    0.2693
 -154.30   95.91   99.23     0.001000       1.1279    3.8103    0.2274
 -147.28   86.75   72.00     0.001000       1.0481    2.3665    0.4057
 -157.16   90.94   92.93     0.001000       1.2618    2.9672    0.2618
 -155.22   88.98   98.14     0.001000       1.6089    2.9309    0.2068
 -154.61   93.48  100.00     0.001000       1.1159    3.8449    0.2277
 -150.59   82.79   79.01     0.001000       1.0303    2.9508    0.3275
 -154.94   88.87  102.49     0.001000       1.6377    2.9952    0.1987
 -154.19   88.69   89.40     0.001000       1.3745    2.9957    0.2382
 -154.16   94.50  102.86     0.001000       1.2513    3.5477    0.2200
 -154.62   89.24   84.58     0.001000       1.3672    3.0842    0.2324
 -160.30  120.61   72.66     0.001000       0.8827    2.9652    0.3795
 -149.06   81.07   82.38     0.001000       0.8725    3.0060    0.3807
 -154.31   91.45   91.85     0.001000       1.3578    2.9725    0.2435
 -156.13   90.87   88.17     0.001000       1.3996    3.0149    0.2317
 -154.29   89.67   93.39     0.001000       1.1904    2.4743    0.3358
 -152.15   92.71   93.21     0.001000       1.2606    2.7087    0.2892
 -152.89   92.00   91.05     0.001000       1.3202    2.9795    0.2500
 -154.75   91.34  101.27     0.001000       1.6090    3.0122    0.2009
 -153.50   67.32   85.46     0.001000       0.8343    3.3905    0.3485
 -153.42   94.80   92.73     0.001000       1.3920    2.7679    0.2549
 -154.43   95.55   94.39     0.001000       1.0426    4.0933    0.2287
 -153.54   89.43   85.89     0.001000       1.3788    3.0152    0.2364
 -154.48   89.67   83.52     0.001000       1.4834    3.0303    0.2175
 -153.63  100.73  100.77     0.001000       1.1888    3.3244    0.2477
 -154.36   61.29   90.01     0.001000       0.8480    3.5353    0.3289
 -154.78   91.29  101.06     0.001000       1.1141    3.8516    0.2277
 -155.06   91.07   95.35     0.001000       1.3927    3.0225    0.2327
 -155.05   86.25   89.47     0.001000       0.9591    3.2027    0.3210
 -155.03   85.69   86.00     0.001000       1.0656    2.9457    0.3133
 -154.39   93.95  101.00     0.001000       1.1571    3.7520    0.2251
 -156.77   68.90  103.77     0.001000       1.0681    3.3647    0.2744
 -157.33   92.68   88.55     0.001000       1.3572    2.9292    0.2460
 -154.60   68.50   90.83     0.001000       1.0011    3.7276    0.2631
 -153.91   96.39  102.63     0.001000       1.3840    3.0912    0.2284
 -153.10   86.89   87.84     0.001000       1.3955    2.8895    0.2436
 -154.63   89.46   85.33     0.001000       1.1687    2.5229    0.3352
 -153.22   88.09   83.13     0.001000       1.2146    2.5721    0.3164
 -153.06   77.72   78.91     0.001000       1.1580    3.2469    0.2609
 -154.73   89.11  101.27     0.001000       1.0927    3.9253    0.2278
 -156.66   92.07   91.32     0.001000       1.2496    2.9707    0.2643
 -157.31  118.48   80.24     0.001000       0.9302    3.4636    0.3062
 -147.21   88.77   88.78     0.001000       1.2305    2.4371    0.3350
 -157.66   92.35   86.71     0.001000       1.2757    2.8622    0.2686
 -154.75   89.28   78.29     0.001000       1.1063    3.8461    0.2297
 -154.73   86.05   88.33     0.001000       0.7726    3.3548    0.3810
 -155.00   92.24   92.72     0.001000       1.1441    2.8434    0.3024
 -153.25   76.33   82.31     0.001000       0.9869    3.1972    0.3118
 -154.61   89.37   80.40     0.001000       1.0551    3.9841    0.2325
 -152.65   91.81   88.29     0.001000       1.2789    2.6265    0.2939
 -154.96   91.00   94.51     0.001000       1.3842    3.0748    0.2301
 -158.23   82.82   88.64     0.001000       1.2646    2.7062    0.2870
 -154.38   93.92   95.81     0.001000       1.1855    2.6887    0.3094
 -153.74   93.02   92.21     0.001000       1.4101    2.9499    0.2359
 -153.72   92.45   91.69     0.001000       1.1176    3.1034    0.2847
