MORPHOLOGY AT STRAIN =    1.0000  FOR PHASE  1
   1.133   3.874   0.228  <-- AXES OF PHASE ELLIPSOID
 -161.94   90.00   90.00  <-- EULER ANGLES OF PHASE ELLIPSOID (deg)
   1.091   2.395   0.413  <-- AVERAGE OF GRAIN AXES FOR PHASE
   0.098   0.308   0.248  <-- STANDARD DEV OF AVG GRAIN AXES FOR PHASE
B       500
 -153.69  122.18   80.19     0.002000       0.9746    2.1198    0.4833
 -154.36   93.05  106.11     0.002000       1.1075    2.8681    0.3137
 -155.93   87.14  100.99     0.002000       1.0008    4.1186    0.2427
 -152.41   89.34   89.57     0.002000       1.1271    1.9612    0.4517
 -152.35   92.89   91.34     0.002000       1.1231    1.9901    0.4468
 -155.89   88.99   87.00     0.002000       1.0000    4.3056    0.2327
 -151.97   86.67   87.29     0.002000       1.1336    2.0933    0.4210
 -154.87   86.54   80.15     0.002000       1.0281    3.6093    0.2693
 -153.05   88.18   86.45     0.002000       1.1389    1.9793    0.4427
 -153.12   70.56   92.27     0.002000       1.0231    2.5639    0.3806
 -155.95   85.43   95.92     0.002000       1.0003    4.1943    0.2387
 -155.64   93.38   93.10     0.002000       1.0010    4.1524    0.2410
 -153.50   88.13   84.88     0.002000       1.1907    1.8562    0.4511
 -153.16   90.98   92.16     0.002000       1.2152    2.0005    0.4103
 -152.39   96.10   92.74     0.002000       1.1786    1.7698    0.4783
 -150.31   86.40   89.20     0.002000       0.9539    2.0517    0.5112
 -155.58   84.75   90.40     0.002000       1.0014    4.0767    0.2453
 -149.32   57.14   88.49     0.002000       0.8792    1.9549    0.5813
 -149.33   67.70   90.15     0.002000       0.8321    1.9790    0.6072
 -153.63  101.73   93.30     0.002000       1.0499    2.9123    0.3266
 -154.05   89.23   80.76     0.002000       1.2794    1.9091    0.4077
 -154.93   90.38  107.46     0.002000       1.0791    3.1215    0.2959
 -155.28   96.29   91.29     0.002000       1.0093    3.8876    0.2551
 -155.55   89.14  103.54     0.002000       1.0183    3.8186    0.2570
 -152.34   90.68   89.78     0.002000       1.1177    1.9630    0.4552
 -156.52   99.39   75.81     0.002000       1.3028    1.7084    0.4472
 -153.35   92.45   91.42     0.002000       1.1370    1.8681    0.4697
 -153.29   90.48   86.12     0.002000       1.2012    1.9938    0.4164
 -149.91   86.02   88.34     0.002000       0.9948    2.3619    0.4264
 -153.70   88.16   94.49     0.002000       1.2378    1.9542    0.4120
 -152.97   92.19   90.43     0.002000       1.1137    1.8968    0.4724
 -155.15   92.85   63.12     0.002000       1.2319    2.4911    0.3240
 -153.56   91.53   85.35     0.002000       1.2543    1.9769    0.4020
 -149.72   84.27   85.61     0.002000       0.9725    2.2159    0.4646
 -154.93   84.94  117.56     0.002000       1.3336    2.3739    0.3143
 -153.70   91.51   82.76     0.002000       1.2865    1.9590    0.3954
 -155.25   88.53  109.87     0.002000       1.0848    3.0910    0.2971
 -152.22  109.13  100.91     0.002000       1.0444    1.8341    0.5207
 -151.85   83.38   89.01     0.002000       1.1043    1.6853    0.5364
 -152.37   87.00   87.36     0.002000       1.1520    2.0839    0.4160
 -152.10   74.14   79.60     0.002000       1.0740    2.1473    0.4323
 -154.11   91.12   90.93     0.002000       1.1569    1.8818    0.4579
 -152.39   93.41   92.25     0.002000       1.1260    2.0141    0.4403
 -156.21   98.45   62.21     0.002000       1.1600    3.0244    0.2839
 -153.19   90.98   92.35     0.002000       1.1738    1.9877    0.4276
 -151.80   88.02   87.23     0.002000       1.1368    2.0792    0.4228
 -152.19  113.59   90.51     0.002000       1.0168    2.2006    0.4460
 -152.39   92.54   90.92     0.002000       1.1219    1.9764    0.4503
 -154.20   94.17   74.84     0.002000       1.3557    2.0068    0.3660
 -155.05  103.97   81.09     0.002000       1.0228    3.2119    0.3041
 -154.58  100.12   89.73     0.002000       1.0271    3.3928    0.2869
 -152.95   92.85   92.48     0.002000       1.1291    1.9384    0.4560
 -153.31   90.02   94.08     0.002000       1.2384    1.9679    0.4091
 -155.81   91.15   81.21     0.002000       1.0003    4.1637    0.2403
 -149.84   57.98   85.11     0.002000       0.9122    1.8948    0.5777
 -149.78   90.55   90.12     0.002000       0.8632    1.9620    0.5905
 -151.62   84.67   87.63     0.002000       0.9776    1.9698    0.5189
 -155.09   93.79   62.79     0.002000       1.2454    2.7373    0.2919
 -155.88   92.70   90.22     0.002000       1.0001    4.2880    0.2337
 -152.27   91.65   92.31     0.002000       1.1524    1.9522    0.4438
 -156.01   88.39   93.41     0.002000       1.0000    4.3479    0.2305
 -152.78   93.92   91.39     0.002000       1.1471    2.0169    0.4314
 -150.29   96.61   90.80     0.002000       0.8378    1.9408    0.6148
 -155.98   91.85   85.73     0.002000       1.0001    4.3100    0.2324
 -152.88   88.71   87.16     0.002000       1.1108    1.9121    0.4699
 -152.82   92.20   93.82     0.002000       1.1316    1.9883    0.4436
 -155.46   88.84  105.52     0.002000       1.0343    3.6121    0.2672
 -154.67   90.80  104.03     0.002000       1.2748    1.8825    0.4147
 -153.88   95.51  104.55     0.002000       1.1212    2.6698    0.3328
 -153.02   92.94   93.24     0.002000       1.2119    1.9131    0.4301
 -151.89   88.36   86.21     0.002000       1.1378    2.1785    0.4032
 -152.19   93.15   91.89     0.002000       1.1249    2.0245    0.4386
 -155.04   82.30   89.44     0.002000       1.0107    3.7478    0.2642
 -151.97   85.74   88.26     0.002000       0.9921    1.9551    0.5151
 -154.84   94.60   98.29     0.002000       1.0333    3.5777    0.2704
 -155.71   85.53   90.65     0.002000       1.0005    4.1597    0.2407
 -156.04   85.01  104.20     0.002000       1.0076    3.9800    0.2493
 -155.26   85.71  117.07     0.002000       1.2411    2.8098    0.2854
 -152.88   93.05   92.67     0.002000       1.1312    1.9832    0.4449
 -155.55   88.13  106.60     0.002000       1.0389    3.5823    0.2682
 -152.86   91.85   93.81     0.002000       1.1420    2.0022    0.4365
 -154.60   83.40   84.21     0.002000       1.0254    3.5301    0.2762
 -154.99   80.05   93.01     0.002000       1.0145    3.5875    0.2748
 -152.98   92.85   92.55     0.002000       1.1165    1.9284    0.4635
 -155.96   89.20   88.47     0.002000       1.0000    4.3493    0.2304
 -152.46   93.36   92.29     0.002000       1.1252    2.0041    0.4428
 -152.04   92.67   90.60     0.002000       1.1296    2.0306    0.4355
 -156.05   93.18   85.90     0.002000       0.9934    1.6049    0.6259
 -153.23   90.20   92.79     0.002000       1.2182    2.0040    0.4085
 -152.05   87.72   85.90     0.002000       1.1216    2.0420    0.4362
 -155.89   87.54  102.13     0.002000       1.0029    4.1033    0.2431
 -154.31   79.27   89.45     0.002000       1.0244    3.3066    0.2951
 -149.29   93.12   89.50     0.002000       0.9119    2.1363    0.5139
 -154.75   89.89  112.83     0.002000       1.1870    2.4092    0.3478
 -152.52   92.08   90.60     0.002000       1.1189    1.9514    0.4573
 -155.28   90.57   74.86     0.002000       1.0345    3.5624    0.2708
 -154.09  106.33   84.78     0.002000       1.0291    2.8473    0.3408
 -151.32   94.02   89.95     0.002000       0.9824    1.9851    0.5126
 -149.28   98.30   87.82     0.002000       0.8347    2.0317    0.5899
 -151.90   92.17   91.02     0.002000       1.1238    2.0362    0.4366
 -151.01   94.99   92.36     0.002000       0.9902    2.0948    0.4821
 -152.08   93.49   91.30     0.002000       1.1340    2.0526    0.4292
 -153.44   90.22   92.51     0.002000       1.1813    1.9593    0.4309
 -155.53   94.89   63.62     0.002000       1.1836    3.0295    0.2777
 -151.76   90.63   87.22     0.002000       1.1416    2.0515    0.4267
 -152.88   90.72   88.91     0.002000       1.1126    1.8988    0.4725
 -154.29   83.93   81.03     0.002000       1.0471    3.2753    0.2912
 -153.80   92.57   83.91     0.002000       1.2681    1.9547    0.4020
 -153.31   89.95   92.65     0.002000       1.2188    1.9939    0.4104
 -152.06   89.08   88.74     0.002000       1.1194    2.0031    0.4455
 -155.67   92.74   74.06     0.002000       1.0231    3.7510    0.2602
 -152.20  119.05   97.56     0.002000       0.8965    1.7067    0.6524
 -151.15   56.58   93.90     0.002000       0.9153    2.0352    0.5363
 -153.98   91.94   97.17     0.002000       1.2219    1.8642    0.4374
 -154.66   94.17   84.18     0.002000       1.2555    1.8342    0.4325
 -154.30   94.68   76.08     0.002000       1.3404    1.9643    0.3782
 -150.75   97.40   92.44     0.002000       0.9685    2.0421    0.5056
 -154.40  105.71   83.52     0.002000       1.0271    2.9516    0.3294
 -153.19   89.10   82.92     0.002000       1.1797    1.9719    0.4288
 -154.28   92.89  107.59     0.002000       1.1296    2.6981    0.3267
 -155.09   86.49   82.08     0.002000       1.0136    3.8131    0.2588
 -151.69   89.02   88.65     0.002000       1.1304    2.1729    0.4070
 -152.19   73.86   77.00     0.002000       1.0865    1.9448    0.4718
 -151.14  122.47   86.98     0.002000       0.8958    1.9597    0.5691
 -155.13   89.30   76.38     0.002000       1.0338    3.5780    0.2699
 -152.52  105.11   97.40     0.002000       1.0750    2.3063    0.4022
 -150.33   88.31   89.73     0.002000       0.9978    2.3670    0.4242
 -155.14   93.19   62.72     0.002000       1.2464    2.4747    0.3224
 -153.89   88.30   97.94     0.002000       1.3239    1.9573    0.3843
 -156.00   86.23   96.86     0.002000       1.0002    4.2250    0.2370
 -151.98   87.88   86.93     0.002000       1.1206    2.0367    0.4377
 -152.66   90.37   83.68     0.002000       1.0511    1.6197    0.5865
 -152.22   91.00   87.73     0.002000       1.1608    1.9539    0.4403
 -152.73  113.55   87.53     0.002000       1.0172    2.2914    0.4282
 -154.76   93.52   67.81     0.002000       1.3016    1.9943    0.3833
 -152.05   58.99   96.42     0.002000       0.8633    2.0376    0.5681
 -151.88  123.54   85.51     0.002000       0.9345    2.0206    0.5290
 -152.26   92.86   92.60     0.002000       1.1370    2.0666    0.4251
 -162.62   87.51   89.42     0.002000       0.9856    1.4944    0.6772
 -154.66   90.79  103.41     0.002000       1.2658    1.8746    0.4194
 -154.76   78.68   93.37     0.002000       1.0191    3.4166    0.2871
 -154.70  105.95   81.48     0.002000       1.0240    2.9899    0.3262
 -153.41   91.93   94.50     0.002000       1.1722    1.9050    0.4466
 -153.88   81.54   82.80     0.002000       1.0497    3.0980    0.3071
 -152.71   87.67   87.40     0.002000       1.1695    1.9345    0.4411
 -152.42   86.82   87.07     0.002000       1.1215    2.0030    0.4445
 -153.13   91.57   92.70     0.002000       1.1523    1.9811    0.4371
 -149.78   87.46   89.32     0.002000       1.0073    2.2566    0.4407
 -151.52   89.86   87.83     0.002000       1.1236    2.1921    0.4060
 -150.10   95.75   92.82     0.002000       0.9842    2.1622    0.4703
 -155.01   91.25   70.50     0.002000       1.2718    1.9268    0.4060
 -153.18   92.44   93.28     0.002000       1.1160    1.9185    0.4660
 -151.23   90.23   88.30     0.002000       0.8995    1.8952    0.5864
 -153.36   99.93   92.81     0.002000       1.1347    1.6308    0.5391
 -150.51   86.45   88.10     0.002000       1.0056    2.1511    0.4626
 -155.23  100.50   84.25     0.002000       1.0187    3.5588    0.2758
 -152.36   75.92   79.40     0.002000       1.0853    2.2457    0.4090
 -154.90   91.86  103.75     0.002000       1.0550    3.3698    0.2807
 -152.27   90.49   88.85     0.002000       1.1237    1.9763    0.4497
 -152.19   89.21   86.99     0.002000       1.1396    2.0275    0.4323
 -153.69   88.83   96.66     0.002000       1.2953    1.9770    0.3891
 -155.08   83.56  117.63     0.002000       1.3436    2.2321    0.3318
 -152.24   93.45   91.57     0.002000       0.9952    1.9661    0.5105
 -154.36   89.72   67.54     0.002000       1.2360    2.1854    0.3682
 -151.40   95.29   90.55     0.002000       0.9741    1.9684    0.5213
 -154.14   92.61   96.35     0.002000       1.2552    1.8380    0.4318
 -155.84   97.59   81.54     0.002000       1.0046    3.9252    0.2536
 -155.41   84.63   88.65     0.002000       1.0030    4.0026    0.2494
 -161.01   67.40   87.07     0.002000       0.9998    1.4388    0.6940
 -154.18   87.65   93.59     0.002000       1.2091    1.8773    0.4390
 -152.31   92.53   91.16     0.002000       1.1220    1.9883    0.4477
 -155.67   83.27   94.30     0.002000       1.0027    4.0061    0.2492
 -155.49   90.45  101.26     0.002000       1.0123    3.9078    0.2528
 -150.72   91.01   89.88     0.002000       0.9999    2.2817    0.4387
 -151.37   67.67   84.48     0.002000       1.0128    2.1269    0.4632
 -152.64   90.42   88.82     0.002000       1.1288    1.9335    0.4574
 -152.38   87.68   86.53     0.002000       1.1188    1.9971    0.4469
 -153.90   92.01   81.43     0.002000       1.3166    1.9517    0.3876
 -159.38   89.65   82.26     0.002000       0.9406    1.5393    0.6892
 -154.61   86.73   93.81     0.002000       1.2043    1.8307    0.4519
 -154.83   94.64   62.42     0.002000       1.3327    2.3927    0.3120
 -154.12   92.98   90.24     0.002000       1.1111    1.7888    0.5018
 -154.30   90.30   76.19     0.002000       1.2977    1.8782    0.4084
 -151.74  111.27   96.55     0.002000       0.8383    1.7110    0.6962
 -153.44   88.27   86.33     0.002000       1.1295    1.9250    0.4588
 -154.51   84.93  109.82     0.002000       1.3649    2.0432    0.3569
 -153.26   92.54   90.23     0.002000       1.1811    1.9836    0.4258
 -152.63   91.90   93.18     0.002000       1.1631    1.9246    0.4458
 -152.07   90.56   87.12     0.002000       1.1481    2.1937    0.3968
 -152.24   91.37   90.38     0.002000       1.1197    1.9816    0.4501
 -153.33   89.92   95.87     0.002000       1.2231    1.9982    0.4080
 -153.56   89.03   93.25     0.002000       1.2207    1.9619    0.4163
 -155.31   74.53  102.16     0.002000       1.0170    3.1551    0.3113
 -162.60   79.44   89.93     0.002000       0.9962    1.4694    0.6815
 -152.66   87.79   86.24     0.002000       1.1292    1.9884    0.4446
 -152.17   85.37   88.68     0.002000       0.9755    1.9052    0.5375
 -155.86   95.54   84.50     0.002000       1.0010    4.1091    0.2434
 -155.46   93.15   95.77     0.002000       1.0042    4.0413    0.2467
 -153.58   98.36  100.13     0.002000       1.0917    2.7489    0.3323
 -151.52  110.45   98.15     0.002000       1.0257    1.9743    0.4927
 -153.80  102.21   91.47     0.002000       1.0429    2.9735    0.3221
 -154.68   89.03  105.87     0.002000       1.2981    1.9302    0.3971
 -152.16   92.39   93.94     0.002000       1.1269    2.0335    0.4358
 -148.93   95.58   94.25     0.002000       0.9720    2.3474    0.4393
 -152.29   92.71   91.19     0.002000       1.1230    1.9944    0.4459
 -152.69   90.40   85.10     0.002000       1.1546    1.9129    0.4519
 -155.59  100.15   81.34     0.002000       1.0146    3.6498    0.2699
 -152.02   96.14   89.48     0.002000       0.9571    1.8902    0.5523
 -154.09   81.82   83.67     0.002000       1.0410    3.2271    0.2974
 -153.58   66.97   97.26     0.002000       1.0115    2.4936    0.3958
 -152.76  118.72   85.55     0.002000       0.9986    2.1276    0.4698
 -154.86   90.77  107.06     0.002000       1.0802    3.1134    0.2964
 -155.26   80.65   94.29     0.002000       1.0108    3.7054    0.2671
 -151.81   90.54   88.93     0.002000       1.1342    2.0242    0.4352
 -155.94   90.61   93.48     0.002000       1.0000    4.3251    0.2317
 -160.43  110.76   90.26     0.002000       1.0072    1.4232    0.6967
 -152.56   92.79   92.76     0.002000       1.1451    2.0419    0.4270
 -155.36   89.46   78.43     0.002000       1.0139    3.8429    0.2566
 -152.24   86.79   86.48     0.002000       1.1277    2.0560    0.4308
 -152.77   92.33   94.87     0.002000       1.1537    1.9748    0.4380
 -153.52  100.80   95.64     0.002000       1.0620    2.8495    0.3298
 -151.90   93.09   91.43     0.002000       1.1360    2.0711    0.4247
 -152.67   92.25   92.38     0.002000       1.1573    1.9498    0.4423
 -155.50   84.26  118.41     0.002000       1.2460    2.7638    0.2890
 -152.30   89.19   88.75     0.002000       1.1172    1.9699    0.4538
 -152.56   93.89   91.64     0.002000       1.1305    1.9965    0.4423
 -152.68   93.18   92.75     0.002000       1.1277    1.9962    0.4434
 -152.23   86.99   87.33     0.002000       1.1215    2.0182    0.4412
 -153.57   97.62  102.14     0.002000       1.1098    2.6447    0.3396
 -151.60   90.20   92.52     0.002000       1.1292    2.1885    0.4046
 -154.20   86.73   86.71     0.002000       1.1098    1.8372    0.4890
 -152.08   87.38   87.85     0.002000       1.1215    2.0234    0.4402
 -155.98   92.79   86.26     0.002000       1.0001    4.2965    0.2331
 -153.09   92.11   92.73     0.002000       1.1421    1.9758    0.4422
 -155.66   92.14   75.83     0.002000       1.0122    3.8574    0.2559
 -151.82   86.96   87.64     0.002000       1.1265    2.0596    0.4306
 -152.15   89.16   88.05     0.002000       1.1196    1.9938    0.4475
 -151.16   94.30   90.66     0.002000       0.9989    2.1307    0.4699
 -152.74   94.42   90.40     0.002000       0.9888    1.8911    0.5340
 -152.23   91.84   92.84     0.002000       1.1443    1.9557    0.4462
 -151.97   89.04   87.51     0.002000       1.1344    2.0131    0.4374
 -153.71   84.46   71.29     0.002000       1.2047    2.1848    0.3780
 -155.65   87.36  108.31     0.002000       1.0541    3.5237    0.2686
 -155.10   81.64   91.20     0.002000       1.0103    3.7390    0.2649
 -152.38   86.49   87.42     0.002000       1.1294    2.0231    0.4370
 -154.91   85.55   95.46     0.002000       1.1886    1.8070    0.4639
 -153.51   92.66   90.91     0.002000       0.9877    1.8409    0.5489
 -153.06  109.50   88.34     0.002000       1.0312    2.4677    0.3922
 -154.71   94.97   82.39     0.002000       0.8814    1.6832    0.6731
 -158.04   56.97  114.08     0.002000       0.9918    1.9661    0.5124
 -150.27   94.28   93.06     0.002000       0.9934    2.2652    0.4449
 -153.21   93.41   92.36     0.002000       1.1281    1.9389    0.4562
 -150.00   96.96   88.77     0.002000       0.8538    1.9622    0.5969
 -152.82   87.58   86.32     0.002000       1.1301    1.9940    0.4429
 -154.62   93.03   67.41     0.002000       1.3439    2.0971    0.3530
 -156.10   82.89  104.17     0.002000       1.0075    3.8977    0.2545
 -152.19   69.84   87.27     0.002000       1.0273    2.3300    0.4169
 -152.36   91.86   91.85     0.002000       1.1628    2.1208    0.4050
 -155.26   87.65  115.72     0.002000       1.2034    2.5184    0.3281
 -152.93   86.77   87.07     0.002000       1.1166    1.9358    0.4617
 -152.72   96.02   94.26     0.002000       1.1449    1.6977    0.5132
 -149.81   92.89   89.48     0.002000       0.9861    2.2860    0.4444
 -156.14   82.35  104.79     0.002000       1.0107    3.8474    0.2570
 -155.69   84.81  115.93     0.002000       1.1774    3.0896    0.2738
 -153.25   79.91   81.24     0.002000       1.0698    2.7448    0.3398
 -154.76   94.52   62.83     0.002000       1.3405    2.3560    0.3150
 -156.00   84.71   99.44     0.002000       1.0005    4.0972    0.2441
 -154.31   81.55   85.64     0.002000       1.0295    3.3692    0.2882
 -151.72   91.08   89.95     0.002000       1.1270    2.0231    0.4383
 -153.05   93.00   91.93     0.002000       1.1150    1.9098    0.4686
 -152.68   92.91   91.97     0.002000       1.1196    1.9554    0.4560
 -154.98   90.66   70.50     0.002000       1.0860    3.0279    0.3029
 -153.43   81.02   80.01     0.002000       1.0092    1.6329    0.6055
 -149.88   94.10   89.69     0.002000       0.9378    2.0819    0.5126
 -148.97   57.46   86.34     0.002000       0.8712    1.9074    0.6012
 -154.27   86.85  107.32     0.002000       1.3595    2.0504    0.3571
 -151.96   73.01   77.87     0.002000       1.0699    1.9581    0.4759
 -152.78   88.03   84.84     0.002000       1.1448    1.9802    0.4402
 -155.35   99.96   83.92     0.002000       1.0161    3.6342    0.2708
 -153.77   92.85   96.75     0.002000       1.2957    1.9041    0.4037
 -151.74   71.29   78.66     0.002000       1.0453    1.9265    0.4953
 -152.55   93.45   92.42     0.002000       1.1267    2.0021    0.4426
 -152.18   73.74   82.13     0.002000       1.0591    2.2786    0.4133
 -150.76   96.31   92.78     0.002000       0.9785    2.0887    0.4893
 -154.66   84.58   82.38     0.002000       1.0287    3.5362    0.2748
 -150.29   60.93   90.40     0.002000       0.8368    1.9230    0.6210
 -153.25   96.76   96.30     0.002000       1.2774    1.7998    0.4332
 -152.25   91.77   90.57     0.002000       1.1205    1.9841    0.4492
 -152.99   93.65   91.33     0.002000       1.1488    1.9938    0.4357
 -155.96   92.69   83.22     0.002000       1.0001    4.2454    0.2358
 -153.75   69.53   96.64     0.002000       1.0167    2.6293    0.3735
 -155.28   93.05   63.97     0.002000       1.1895    2.7435    0.3048
 -151.62   94.16   91.99     0.002000       0.9938    2.0344    0.4943
 -154.54  112.39   78.52     0.002000       1.0123    2.5660    0.3843
 -155.97   93.15   84.61     0.002000       1.0001    4.2580    0.2352
 -153.22   89.51   85.42     0.002000       1.1530    1.9725    0.4386
 -152.65   86.31   87.26     0.002000       1.1293    2.0025    0.4414
 -150.36   82.80   86.24     0.002000       0.9611    2.1076    0.4938
 -154.70   87.21   77.29     0.002000       1.0494    3.3649    0.2827
 -154.32   88.25   68.39     0.002000       1.1983    2.3292    0.3564
 -152.89   88.96   83.87     0.002000       1.1626    2.0083    0.4274
 -154.27   87.33   72.32     0.002000       1.1141    2.7652    0.3233
 -155.97   94.64   81.07     0.002000       1.0004    4.1273    0.2424
 -152.64   88.29   84.14     0.002000       1.1437    2.0113    0.4339
 -155.97   88.05   91.03     0.002000       1.0000    4.3393    0.2309
 -152.21   90.31   89.61     0.002000       1.1186    1.9791    0.4512
 -152.42   88.88   88.68     0.002000       1.1162    1.9563    0.4573
 -151.64  101.07   89.93     0.002000       0.8555    1.8415    0.6342
 -152.40   88.98   87.26     0.002000       1.1245    1.9704    0.4506
 -150.55   89.56   90.40     0.002000       0.9993    2.3317    0.4298
 -154.18   88.34  103.68     0.002000       1.3151    1.9300    0.3922
 -153.25   92.47   92.92     0.002000       1.1120    1.8984    0.4726
 -154.97   87.77  113.74     0.002000       1.2992    2.0963    0.3651
 -155.11   91.99   64.17     0.002000       1.2444    2.2517    0.3548
 -152.85  101.58  100.93     0.002000       1.1093    2.3483    0.3826
 -151.65   88.04   92.10     0.002000       0.9496    2.0198    0.5210
 -151.99   88.68   88.58     0.002000       1.1202    2.0152    0.4425
 -157.04   83.02   97.24     0.002000       0.9331    1.6030    0.6673
 -152.48   87.24   87.07     0.002000       1.1286    1.9991    0.4425
 -151.99   91.17   91.68     0.002000       1.1413    2.0479    0.4274
 -155.32   89.85  104.57     0.002000       1.0363    3.5902    0.2684
 -154.29   95.17   92.06     0.002000       1.1089    1.7959    0.5007
 -152.57   90.43   88.68     0.002000       1.1253    1.9399    0.4573
 -153.00  113.89   85.90     0.002000       1.0153    2.3213    0.4235
 -155.95   92.57   82.16     0.002000       1.0002    4.2225    0.2370
 -152.31   88.38   88.89     0.002000       1.1245    1.9787    0.4488
 -154.89   85.78  117.31     0.002000       1.3160    2.4790    0.3050
 -153.00   92.47   91.01     0.002000       1.1804    1.9063    0.4434
 -156.82   82.39   93.05     0.002000       1.2302    1.6563    0.4886
 -152.16   92.63   92.86     0.002000       1.1386    2.1124    0.4153
 -152.74   91.96   90.62     0.002000       1.1155    1.9228    0.4654
 -151.81   90.12   93.28     0.002000       1.1424    2.0925    0.4180
 -155.17   97.55   89.90     0.002000       1.0132    3.7801    0.2613
 -152.73  102.74   99.54     0.002000       1.0951    2.3517    0.3871
 -153.44   92.32   95.81     0.002000       1.1881    1.9128    0.4387
 -151.13   85.52   86.68     0.002000       0.9884    2.0964    0.4825
 -155.69   87.84  105.11     0.002000       1.0213    3.7952    0.2577
 -149.76   96.34   88.55     0.002000       0.8537    2.0953    0.5593
 -152.17   92.06   90.88     0.002000       1.1217    1.9994    0.4454
 -152.69   88.35   85.96     0.002000       1.1341    1.9585    0.4494
 -154.90   79.33   93.37     0.002000       1.0169    3.5036    0.2807
 -151.34   84.27   87.05     0.002000       0.9773    2.0115    0.5084
 -151.10   63.35   87.35     0.002000       0.9872    2.1087    0.4795
 -155.53   89.91  101.98     0.002000       1.0129    3.8945    0.2535
 -158.53   93.29   88.92     0.002000       1.0514    1.6141    0.5872
 -154.57   94.13   64.63     0.002000       1.3596    2.2654    0.3231
 -151.38   94.71   90.52     0.002000       0.9940    2.0079    0.5008
 -155.23   89.61   76.75     0.002000       1.0266    3.6630    0.2656
 -153.26   82.26   80.97     0.002000       1.2591    1.7904    0.4418
 -153.75   91.81   82.47     0.002000       1.2556    1.8682    0.4249
 -154.97   95.71   61.93     0.002000       1.3419    2.3046    0.3218
 -151.16   94.18   90.94     0.002000       1.0038    2.0857    0.4776
 -153.32   90.42   92.63     0.002000       1.1791    1.9747    0.4284
 -150.17   91.00   90.12     0.002000       0.9846    2.4072    0.4227
 -155.47   82.54   93.06     0.002000       1.0052    3.9072    0.2548
 -150.80   92.07   90.35     0.002000       1.0097    2.0868    0.4747
 -152.11   93.70   91.80     0.002000       1.1290    2.0473    0.4322
 -149.93  117.52   96.66     0.002000       0.9212    1.8614    0.5824
 -151.86   87.84   85.98     0.002000       1.1369    2.1305    0.4126
 -153.59   99.69   97.18     0.002000       1.0701    2.8578    0.3263
 -152.37   89.07   89.08     0.002000       1.1293    1.9708    0.4486
 -153.39   90.56   92.29     0.002000       1.1182    1.8621    0.4791
 -152.68   87.61   86.15     0.002000       1.1303    2.0124    0.4388
 -152.65   88.65   85.23     0.002000       1.1486    2.0416    0.4257
 -153.03   92.45   92.72     0.002000       1.1378    1.9773    0.4435
 -155.82   92.61   77.80     0.002000       1.0024    4.0609    0.2457
 -151.69   89.85   89.51     0.002000       1.1240    2.0367    0.4365
 -153.25   92.89   91.07     0.002000       1.1194    1.8777    0.4747
 -155.92   86.01   93.95     0.002000       1.0002    4.2374    0.2364
 -152.55   91.87   90.94     0.002000       1.1173    1.9473    0.4589
 -155.59   99.75   81.81     0.002000       1.0135    3.6901    0.2673
 -156.44   78.44  110.63     0.002000       1.0486    3.3663    0.2827
 -153.24  104.51  102.91     0.002000       1.1560    1.7774    0.4850
 -154.69   99.28   90.44     0.002000       1.0245    3.4879    0.2798
 -154.14   87.62  103.28     0.002000       1.3364    1.9980    0.3728
 -151.19   93.26   92.15     0.002000       0.9976    2.1401    0.4684
 -154.04   81.07   84.71     0.002000       1.0382    3.2120    0.2996
 -153.02   89.26   85.84     0.002000       1.1604    2.0055    0.4288
 -153.12   78.54   82.79     0.002000       1.0604    2.7221    0.3457
 -152.94   87.86   86.42     0.002000       1.1349    1.9875    0.4424
 -149.83  121.21   93.43     0.002000       0.9168    1.9329    0.5636
 -154.98   87.43  115.86     0.002000       1.2887    2.2659    0.3405
 -154.94   89.90   72.74     0.002000       1.0671    3.2053    0.2915
 -155.62   87.63  107.52     0.002000       1.0456    3.5531    0.2686
 -150.26   56.99   89.74     0.002000       0.9279    1.9965    0.5392
 -151.82   90.89   91.45     0.002000       1.1281    1.9912    0.4448
 -152.14   90.59   89.85     0.002000       1.1398    1.9982    0.4385
 -150.28   60.16   87.06     0.002000       0.9549    2.0298    0.5152
 -155.93   94.93   69.03     0.002000       1.0779    3.5459    0.2609
 -153.40   88.43   88.61     0.002000       1.1018    1.8462    0.4905
 -155.85   95.60   84.65     0.002000       1.0011    4.1033    0.2437
 -152.34   89.65   89.22     0.002000       1.1170    1.9629    0.4555
 -152.88   94.93   89.93     0.002000       0.9883    1.8864    0.5355
 -154.69   84.72  114.07     0.002000       1.3648    2.1441    0.3401
 -152.03   87.26   85.34     0.002000       1.1239    2.0468    0.4342
 -155.17   91.79   67.91     0.002000       1.1093    2.8730    0.3123
 -152.25   70.50   87.02     0.002000       1.0304    2.3522    0.4117
 -154.27   87.98  101.81     0.002000       1.3091    1.9474    0.3905
 -151.52   64.79   88.05     0.002000       0.9993    2.1693    0.4605
 -153.66   87.96   82.63     0.002000       0.8473    1.7029    0.6921
 -153.88   80.97   83.84     0.002000       1.0447    3.1172    0.3067
 -153.36   98.73  101.83     0.002000       1.1134    2.5433    0.3519
 -152.05   90.01   91.82     0.002000       1.1489    2.0324    0.4278
 -154.25   94.16  104.10     0.002000       1.0952    2.9308    0.3106
 -152.88   78.76   82.26     0.002000       1.0827    1.6509    0.5581
 -151.97   90.15   90.89     0.002000       1.1515    2.0084    0.4319
 -154.18   90.68   80.35     0.002000       1.2616    1.9128    0.4127
 -153.14   79.28   76.63     0.002000       1.2142    1.8227    0.4501
 -154.60  105.07  100.23     0.002000       0.9058    1.5968    0.6902
 -150.13   87.89   89.98     0.002000       0.9367    2.0655    0.5171
 -151.90   88.23   86.50     0.002000       1.1219    2.0384    0.4369
 -155.41   99.09   84.76     0.002000       1.0130    3.7341    0.2644
 -152.45   87.07   87.28     0.002000       1.1196    1.9872    0.4488
 -151.94   88.27   87.39     0.002000       1.1350    2.0644    0.4264
 -155.20  100.32   84.70     0.002000       1.0185    3.5715    0.2749
 -153.48   90.79   84.79     0.002000       1.2055    1.9731    0.4192
 -154.43   92.16   91.51     0.002000       1.1327    1.8389    0.4786
 -152.53   87.11   86.67     0.002000       1.1292    2.0117    0.4395
 -154.70   86.03  116.20     0.002000       1.3421    2.3640    0.3136
 -155.92   91.24   92.61     0.002000       1.0000    4.3198    0.2320
 -151.97  110.08   95.27     0.002000       1.0390    2.1470    0.4472
 -155.52   96.87   92.66     0.002000       1.1523    1.6726    0.5171
 -153.78   88.49   96.91     0.002000       1.2716    1.9706    0.3976
 -156.27   99.13   72.13     0.002000       1.0270    3.6494    0.2664
 -152.50   87.40   86.02     0.002000       1.1245    2.0192    0.4397
 -151.21   95.20   92.03     0.002000       0.9887    2.0469    0.4940
 -154.79   92.06   66.98     0.002000       1.2664    2.0471    0.3837
 -152.88   88.89   86.70     0.002000       1.1729    2.0280    0.4196
 -154.38   79.84   89.03     0.002000       1.0230    3.3660    0.2903
 -153.02   87.84   88.56     0.002000       1.1816    2.0099    0.4201
 -153.31   89.85   84.90     0.002000       1.1737    1.9724    0.4308
 -150.83   88.90   86.76     0.002000       0.8537    1.8691    0.6264
 -156.03   95.41   70.59     0.002000       1.0529    3.6739    0.2579
 -152.70  107.82   92.18     0.002000       1.0446    2.4085    0.3966
 -152.75   86.60   87.89     0.002000       1.1471    2.0311    0.4284
 -155.68   87.85   85.62     0.002000       1.0004    4.1870    0.2391
 -152.67   71.60   76.53     0.002000       1.0666    1.7616    0.5307
 -154.58   90.87  110.98     0.002000       1.1588    2.5456    0.3373
 -151.78  121.09   87.77     0.002000       0.9707    2.0501    0.5017
 -151.87   93.24   91.78     0.002000       1.1326    2.0482    0.4307
 -149.51   84.01   85.12     0.002000       0.9669    2.2449    0.4613
 -152.64   93.96   90.23     0.002000       1.0904    1.6501    0.5548
 -152.40   89.56   89.12     0.002000       1.1424    1.9667    0.4444
 -152.46   92.96   93.14     0.002000       1.1280    2.0241    0.4373
 -155.48   93.85   94.10     0.002000       1.0034    4.0561    0.2460
 -152.72   72.01   88.56     0.002000       1.0322    2.5094    0.3853
 -155.41   91.49   99.83     0.002000       1.0116    3.9224    0.2521
 -150.44   85.03   87.36     0.002000       0.9932    2.1473    0.4692
 -154.91   93.79   92.56     0.002000       1.0953    1.7749    0.5128
 -156.28   80.83  107.45     0.002000       1.0270    3.6716    0.2648
 -155.76   90.12   98.30     0.002000       1.0008    4.1626    0.2403
 -151.47   85.38   87.21     0.002000       0.9874    2.0216    0.5007
 -155.98   80.63  102.52     0.002000       1.0090    3.7568    0.2637
 -152.81   89.21   88.27     0.002000       1.1479    1.9230    0.4521
 -155.49   89.47  103.43     0.002000       1.0204    3.7846    0.2587
 -153.27   88.50   86.42     0.002000       1.1386    1.9520    0.4488
 -149.88  121.73   92.65     0.002000       0.9201    1.9485    0.5571
 -151.40  102.89   94.03     0.002000       0.8265    1.7707    0.6826
 -152.16   92.37   90.77     0.002000       1.1233    2.0044    0.4436
 -154.35   91.59   86.42     0.002000       1.1682    1.8515    0.4608
 -151.85   89.92   90.87     0.002000       1.1363    2.0015    0.4393
 -151.98   92.06   92.02     0.002000       1.1247    2.0300    0.4375
 -152.16   93.79   91.34     0.002000       1.1329    2.0436    0.4314
 -155.34   85.82  116.45     0.002000       1.2170    2.9123    0.2809
 -153.22   80.89   73.25     0.002000       1.2023    2.0225    0.4094
 -153.68   92.11   94.56     0.002000       1.1938    1.8749    0.4454
 -155.55   92.68   95.71     0.002000       1.0024    4.0981    0.2437
 -152.39   87.54   88.29     0.002000       1.1233    1.9794    0.4491
 -153.77   92.60   83.00     0.002000       1.2863    1.9719    0.3929
 -154.84   90.25  109.20     0.002000       1.1045    2.9151    0.3093
 -152.28   75.42   79.27     0.002000       1.0843    2.2025    0.4175
 -155.99   88.11   97.00     0.002000       1.0001    4.2724    0.2344
 -152.90   92.51   93.10     0.002000       1.1324    1.9858    0.4438
 -151.92   93.91   87.61     0.002000       1.1694    1.8799    0.4540
 -153.00   88.95   86.55     0.002000       1.2172    1.9656    0.4169
 -155.62   90.30   99.89     0.002000       1.0042    4.0503    0.2460
 -152.35   69.50   88.61     0.002000       1.0245    2.3678    0.4114
 -155.30   95.04   84.82     0.002000       1.1987    1.7723    0.4689
 -153.22   79.61   81.54     0.002000       1.0682    2.7360    0.3414
 -155.41   87.60  113.51     0.002000       1.1368    2.8261    0.3097
 -153.13   90.05   89.00     0.002000       1.2143    2.0103    0.4086
 -152.07   89.76   85.84     0.002000       1.1348    1.9753    0.4456
 -152.09   88.34   86.37     0.002000       1.1322    2.0128    0.4383
 -154.58   89.33   69.14     0.002000       1.1369    2.6510    0.3302
 -155.93   85.68   94.64     0.002000       1.0002    4.2138    0.2376
 -154.69   94.25   90.97     0.002000       1.0978    1.7482    0.5196
 -152.38  108.50   93.83     0.002000       1.0466    2.2906    0.4162
 -150.27   90.07   90.12     0.002000       0.9463    2.0864    0.5067
 -156.50  101.32   56.23     0.002000       1.3334    1.9144    0.3899
 -155.97   93.18   83.30     0.002000       1.0001    4.2348    0.2364
 -152.51   86.17   85.11     0.002000       1.0824    1.6609    0.5552
 -152.68   91.11   89.91     0.002000       1.1815    1.8962    0.4455
 -153.88   87.95   73.97     0.002000       1.3038    1.9308    0.3953
 -155.97   92.95   85.00     0.002000       1.0001    4.2766    0.2342
 -151.91   91.57   91.17     0.002000       1.1387    2.0511    0.4278
 -153.74   90.09   92.62     0.002000       1.1643    1.9139    0.4474
 -156.64   83.91   91.95     0.002000       1.2072    1.6722    0.4932
 -152.84   91.12   93.87     0.002000       1.1711    2.0271    0.4204
 -152.98   91.73   92.48     0.002000       1.1590    2.0059    0.4292
 -154.07   95.06   88.95     0.002000       0.9535    1.7614    0.5944
