MORPHOLOGY AT STRAIN =    1.0000  FOR PHASE  1
   1.046   2.336   0.409  <-- AXES OF PHASE ELLIPSOID
 -154.08   90.00   90.00  <-- EULER ANGLES OF PHASE ELLIPSOID (deg)
   1.070   2.584   0.398  <-- AVERAGE OF GRAIN AXES FOR PHASE
   0.155   0.305   0.306  <-- STANDARD DEV OF AVG GRAIN AXES FOR PHASE
B       500
 -160.51  126.68   63.25     0.002000       1.0551    2.0433    0.4649
 -152.62  110.87  102.77     0.002000       1.0200    3.1630    0.3053
 -153.81   90.95  108.15     0.002000       1.0079    3.8411    0.2526
 -154.18   90.18   86.31     0.002000       1.2979    2.0321    0.3788
 -154.08   92.88   99.64     0.002000       1.2192    2.1872    0.3744
 -153.98   86.66   86.53     0.002000       1.0001    4.6713    0.2070
 -149.67   88.40   88.17     0.002000       1.1400    1.8319    0.4813
 -153.29   77.94   80.29     0.002000       1.0038    4.0088    0.2422
 -155.12   89.79   79.92     0.002000       1.3457    2.2373    0.3302
 -156.07   63.38  104.36     0.002000       1.0284    3.0169    0.3193
 -154.39   86.49  102.47     0.002000       1.0011    4.2092    0.2310
 -154.06   95.60   91.90     0.002000       1.0002    4.6199    0.2093
 -156.24   83.15   82.56     0.002000       0.8991    1.9162    0.5812
 -153.61  102.30  102.77     0.002000       1.1244    1.7940    0.4962
 -155.81  102.63   93.31     0.002000       0.7386    2.4146    0.5599
 -143.84   87.12   83.74     0.002000       0.9548    1.8530    0.5715
 -154.20   82.80   94.79     0.002000       1.0006    4.5718    0.2119
 -156.60   49.39  103.66     0.002000       0.8290    2.2613    0.5357
 -152.83   76.36   98.45     0.002000       0.7125    2.3714    0.5942
 -154.86  111.66   85.30     0.002000       1.0025    3.5989    0.2718
 -152.84   65.60   76.16     0.002000       0.8921    2.2006    0.5084
 -151.82  104.69  107.09     0.002000       1.0475    3.3596    0.2796
 -154.43   99.11   86.78     0.002000       1.0007    4.4275    0.2188
 -153.21   96.12  108.17     0.002000       1.0190    3.7013    0.2596
 -153.89   90.60   90.96     0.002000       1.2140    2.1462    0.3837
 -158.49  108.76  101.52     0.002000       1.1613    1.7310    0.4981
 -156.18   93.48   94.94     0.002000       1.1375    2.3151    0.3780
 -153.73   88.87   68.55     0.002000       1.4183    2.2614    0.3097
 -141.89   85.50   83.63     0.002000       0.9972    1.8681    0.5433
 -155.89   89.61  117.14     0.002000       1.4162    2.3254    0.3004
 -156.12   93.68   93.96     0.002000       1.1335    2.2455    0.3916
 -151.95   80.39   64.16     0.002000       1.1580    2.7215    0.3140
 -153.86   85.85   65.01     0.002000       1.4171    2.1337    0.3286
 -143.20   80.81   75.67     0.002000       0.9382    1.9225    0.5603
 -155.10   85.73  119.00     0.002000       1.3519    2.6561    0.2750
 -151.91   73.54   68.60     0.002000       1.1150    2.0098    0.4458
 -152.22  101.82  110.27     0.002000       1.0743    3.1251    0.2935
 -153.24  130.49   89.47     0.002000       0.8106    2.6591    0.4629
 -156.32   81.84   88.02     0.002000       0.8315    2.3768    0.5052
 -153.54   83.42   85.33     0.002000       1.0992    1.7121    0.5329
 -153.29   54.88   86.60     0.002000       0.9099    2.9331    0.3713
 -156.21   82.87   84.77     0.002000       1.1605    2.2665    0.3785
 -153.87   92.38   96.40     0.002000       1.2628    2.1491    0.3678
 -156.30  100.02   62.24     0.002000       1.3548    2.5477    0.2864
 -154.46   91.78  103.47     0.002000       1.4403    2.0933    0.3299
 -152.74   86.89   93.35     0.002000       1.0796    1.6323    0.5699
 -157.01  123.90   77.40     0.002000       0.9933    2.7435    0.3645
 -153.90   93.98   97.14     0.002000       1.2254    2.2014    0.3701
 -154.88   92.69   60.40     0.002000       1.4002    2.4977    0.2827
 -156.13  106.19   68.77     0.002000       1.0774    3.2638    0.2803
 -155.07  104.95   81.46     0.002000       1.0019    3.9662    0.2456
 -155.54   91.23   94.84     0.002000       1.1652    2.3673    0.3607
 -154.83  104.47  101.89     0.002000       1.0672    1.8782    0.4986
 -153.71   86.77   76.40     0.002000       1.0012    4.1468    0.2345
 -155.22   56.00   94.41     0.002000       0.7867    2.7377    0.4633
 -149.24   88.34  100.25     0.002000       0.7358    2.1644    0.6320
 -150.99   78.12   82.27     0.002000       0.8353    2.3172    0.5185
 -152.63   86.53   61.93     0.002000       1.1958    2.9394    0.2809
 -154.27   93.13   88.23     0.002000       1.0001    4.6750    0.2066
 -157.50   97.72   85.90     0.002000       0.9394    1.7867    0.5970
 -154.22   89.14   96.42     0.002000       1.0003    4.5478    0.2128
 -153.74   90.79   91.30     0.002000       1.3155    2.0922    0.3627
 -150.45   98.18   87.68     0.002000       0.8177    2.4223    0.5074
 -154.37   89.74   82.35     0.002000       1.0004    4.5226    0.2137
 -155.44   89.55   86.33     0.002000       1.2602    2.1268    0.3720
 -154.51   91.96  102.49     0.002000       1.3580    2.2017    0.3326
 -152.89   97.58  109.20     0.002000       1.0371    3.5212    0.2687
 -153.54  107.74  104.77     0.002000       0.9968    2.1584    0.4633
 -151.92  115.30  100.72     0.002000       1.0161    3.1058    0.3127
 -157.40  101.42   95.26     0.002000       0.8040    2.1602    0.5753
 -153.41   87.26   88.35     0.002000       1.0822    1.6928    0.5478
 -152.52   93.21   93.49     0.002000       1.2049    2.0995    0.3956
 -154.37   78.54   95.30     0.002000       1.0011    4.2944    0.2263
 -154.76   83.95   86.39     0.002000       0.9033    2.4336    0.4545
 -153.63  102.57   96.66     0.002000       1.0028    4.1337    0.2345
 -154.39   84.01   94.60     0.002000       1.0004    4.5218    0.2141
 -154.06   88.22  112.81     0.002000       1.0651    3.4820    0.2648
 -154.22   88.47  118.31     0.002000       1.2640    2.8781    0.2711
 -154.58   91.41   98.22     0.002000       1.3266    2.2424    0.3345
 -152.73   96.51  110.75     0.002000       1.0522    3.4350    0.2719
 -153.17   92.90  104.02     0.002000       1.3545    2.1556    0.3413
 -153.66   76.03   87.60     0.002000       1.0013    4.2270    0.2299
 -154.94   77.15  102.02     0.002000       1.0044    3.9188    0.2486
 -155.84   91.37   98.53     0.002000       1.2724    2.1504    0.3639
 -154.18   87.66   88.52     0.002000       1.0000    4.6645    0.2071
 -154.23   91.53   99.95     0.002000       1.2549    2.2100    0.3596
 -151.96   92.56   90.87     0.002000       1.2106    2.0559    0.4025
 -157.37   80.43   88.91     0.002000       0.8071    2.3714    0.5217
 -151.42  101.32  108.29     0.002000       1.2108    1.8955    0.4360
 -150.21   84.40   83.07     0.002000       1.1030    1.7205    0.5298
 -154.21   92.23  109.21     0.002000       1.0098    3.6965    0.2621
 -154.81   73.44   97.46     0.002000       1.0020    3.9175    0.2490
 -140.85   86.93   96.33     0.002000       0.9286    1.6679    0.6534
 -151.60  110.75  108.28     0.002000       1.0421    2.6487    0.3592
 -154.49   93.09   94.98     0.002000       1.1915    2.2219    0.3770
 -152.53   80.89   71.62     0.002000       1.0259    3.5947    0.2660
 -157.51  111.18   71.00     0.002000       1.0124    3.0939    0.3152
 -150.05   93.56   92.65     0.002000       0.9626    2.1772    0.4801
 -151.03  114.23   75.31     0.002000       0.7906    1.9059    0.6694
 -149.42   94.00   91.09     0.002000       1.1278    1.8564    0.4802
 -151.68   99.14   97.82     0.002000       0.9260    2.3542    0.4600
 -150.91   92.05   91.75     0.002000       1.1838    2.0162    0.4202
 -154.97   89.21  104.54     0.002000       1.4314    2.2111    0.3137
 -154.34   92.26   60.52     0.002000       1.2214    2.9797    0.2707
 -155.83   91.04   91.75     0.002000       1.0174    1.7449    0.5644
 -155.56   92.34   92.43     0.002000       1.1918    2.1962    0.3809
 -153.08   73.20   83.87     0.002000       1.0041    3.9480    0.2464
 -154.98   92.04   64.69     0.002000       1.4431    2.3232    0.2955
 -152.17   97.34  108.78     0.002000       1.3451    1.9915    0.3726
 -153.74   89.17   83.73     0.002000       1.2083    2.1012    0.3940
 -152.74   86.02   67.72     0.002000       1.0418    3.6106    0.2610
 -155.19  122.00   88.15     0.002000       0.7510    2.7389    0.4848
 -157.34   49.68  109.89     0.002000       0.9368    1.9975    0.5374
 -154.66  105.36  100.20     0.002000       0.9080    2.0011    0.5505
 -156.24   97.82   94.85     0.002000       1.4125    1.9812    0.3557
 -155.54   94.27   61.53     0.002000       1.4470    2.3185    0.2951
 -150.17   98.16   97.37     0.002000       0.8313    2.4144    0.5004
 -156.39  109.93   70.90     0.002000       1.0495    3.2509    0.2891
 -152.50   75.69   74.20     0.002000       1.0204    1.8702    0.5248
 -151.95  112.78  103.95     0.002000       1.0228    2.9952    0.3223
 -153.61   79.96   82.11     0.002000       1.0013    4.2070    0.2308
 -150.06   91.69   89.70     0.002000       1.1186    1.7798    0.5049
 -151.64   51.30   86.41     0.002000       0.8499    2.7963    0.4188
 -155.80  116.77   78.71     0.002000       0.7404    2.4792    0.5461
 -152.88   79.53   74.18     0.002000       1.0154    3.7135    0.2595
 -153.64  122.67   89.95     0.002000       0.9877    3.0328    0.3302
 -145.00   88.48   88.17     0.002000       0.9989    2.0672    0.4895
 -152.71   82.35   62.50     0.002000       1.1775    2.8236    0.2970
 -151.95  102.79  114.05     0.002000       1.1813    2.1577    0.3910
 -154.09   87.94  103.19     0.002000       1.0012    4.2365    0.2296
 -149.85   86.49   84.45     0.002000       1.1370    1.8689    0.4729
 -156.94   85.70   86.00     0.002000       0.8526    2.3068    0.5077
 -156.24   87.83   94.20     0.002000       0.9813    1.7465    0.5848
 -157.48  121.32   73.40     0.002000       1.0223    2.6893    0.3615
 -152.30   76.01   64.10     0.002000       1.1447    2.4857    0.3487
 -149.53   76.50  102.17     0.002000       0.7904    2.2201    0.5743
 -158.00  128.25   70.15     0.002000       0.8800    2.2553    0.5059
 -153.35   89.78   92.43     0.002000       1.2348    2.1224    0.3816
 -167.42   95.16   92.29     0.002000       0.9598    1.3465    0.7788
 -153.55  105.89  105.67     0.002000       1.0284    2.1252    0.4561
 -155.11   75.14  103.24     0.002000       1.0095    3.8226    0.2539
 -156.69  109.09   68.64     0.002000       1.0851    3.0535    0.2982
 -152.69   96.17  100.85     0.002000       1.3242    1.9720    0.3824
 -153.60   70.48   87.58     0.002000       1.0029    3.7575    0.2598
 -152.98   85.83   77.51     0.002000       1.0859    1.7606    0.5246
 -154.04   87.53   78.93     0.002000       1.2659    2.2027    0.3577
 -154.80   89.14  103.21     0.002000       1.3729    2.2670    0.3193
 -140.86   85.61   82.24     0.002000       1.0242    1.7321    0.5705
 -153.90   90.33   90.06     0.002000       1.0669    1.6712    0.5628
 -144.11   99.79  102.37     0.002000       0.9492    1.9072    0.5580
 -151.36   77.39   63.66     0.002000       1.1815    2.3410    0.3597
 -156.09   91.03   99.34     0.002000       1.3172    2.1143    0.3573
 -154.60   95.71   90.86     0.002000       0.7752    2.4303    0.5311
 -155.28   98.02   91.16     0.002000       0.7864    2.4746    0.5133
 -147.33   84.36   81.19     0.002000       1.0249    2.0469    0.4807
 -155.29  102.02   73.56     0.002000       1.0097    3.7560    0.2583
 -152.35   56.06   85.75     0.002000       0.9636    2.9105    0.3535
 -152.46  103.41  103.82     0.002000       1.0210    3.7250    0.2575
 -154.40   90.06   86.92     0.002000       1.2809    2.0633    0.3778
 -152.56   90.50   87.12     0.002000       1.2050    2.1057    0.3945
 -151.84  106.87  110.41     0.002000       1.0830    2.0782    0.4437
 -156.02   81.90  114.65     0.002000       1.4178    2.4508    0.2846
 -155.95   95.64   92.81     0.002000       0.8750    2.4805    0.4596
 -152.17   64.96   73.75     0.002000       0.9822    2.6669    0.3785
 -148.43   99.03   96.10     0.002000       0.8878    2.1301    0.5327
 -154.96  108.08   98.04     0.002000       0.8462    2.1819    0.5410
 -154.71   95.95   71.63     0.002000       1.0061    3.8684    0.2513
 -154.11   81.66   92.32     0.002000       1.0005    4.5734    0.2118
 -161.44   81.07   89.01     0.002000       0.9641    1.2566    0.8321
 -156.96   85.26   94.39     0.002000       1.4112    2.1396    0.3285
 -154.29   91.60   99.64     0.002000       1.2033    2.1775    0.3812
 -154.68   82.77  101.72     0.002000       1.0014    4.1716    0.2331
 -153.11   96.52  104.93     0.002000       1.0056    4.0117    0.2420
 -149.90   90.89   90.47     0.002000       0.9998    2.3417    0.4295
 -153.99   53.70   94.66     0.002000       0.9679    2.8405    0.3615
 -154.11   89.43   92.11     0.002000       1.3068    2.0352    0.3757
 -154.37   88.62   78.96     0.002000       1.2719    2.1991    0.3563
 -151.47   76.00   65.20     0.002000       1.1583    2.1663    0.3974
 -153.51   81.26   88.29     0.002000       0.7755    2.4760    0.5214
 -158.15   83.38   89.51     0.002000       1.3268    2.0692    0.3619
 -154.65   91.31   58.45     0.002000       1.2748    2.8218    0.2739
 -158.05   96.78   94.83     0.002000       1.0591    2.1613    0.4356
 -153.76   67.86   77.49     0.002000       0.9283    2.2536    0.4764
 -152.93  125.99   85.99     0.002000       0.7540    2.5409    0.5232
 -156.72   91.73   81.37     0.002000       1.2693    2.2384    0.3497
 -155.51   85.02  115.87     0.002000       1.4384    2.4059    0.2858
 -153.90   91.39   92.79     0.002000       1.3921    2.0317    0.3526
 -155.55   92.47   95.73     0.002000       0.9749    1.7248    0.5966
 -151.18   87.36   88.62     0.002000       1.1211    1.7347    0.5166
 -154.11   90.28   96.43     0.002000       1.2275    2.0941    0.3889
 -152.86  107.23  105.63     0.002000       1.0156    1.9353    0.5091
 -154.85   88.70  109.78     0.002000       1.4420    2.2806    0.3016
 -156.90   72.93  113.80     0.002000       1.1739    2.7611    0.3054
 -158.72   85.24   89.88     0.002000       0.9888    1.2351    0.8256
 -154.46   90.65   85.66     0.002000       1.1776    2.3702    0.3570
 -152.08   83.31   85.72     0.002000       0.8545    2.3483    0.4999
 -154.33   94.21   77.53     0.002000       1.0012    4.2602    0.2281
 -153.84   96.93   95.80     0.002000       1.0004    4.4504    0.2177
 -153.40  114.84   95.05     0.002000       1.0062    3.3325    0.2932
 -154.96  129.64   86.89     0.002000       0.8819    2.6649    0.4237
 -155.32  110.54   82.55     0.002000       1.0025    3.6346    0.2690
 -152.35  101.36  114.00     0.002000       1.1909    2.2204    0.3764
 -151.84   96.33   95.23     0.002000       1.0788    1.6674    0.5586
 -139.63   96.02  102.30     0.002000       0.9818    1.6433    0.6273
 -154.06   92.55   99.29     0.002000       1.2235    2.1573    0.3784
 -156.84   83.23   83.60     0.002000       0.9235    1.7668    0.6145
 -155.22  100.21   69.96     0.002000       1.0276    3.6217    0.2637
 -150.03   99.70   94.59     0.002000       0.7956    2.2637    0.5583
 -153.90   72.19   88.40     0.002000       1.0022    3.8492    0.2533
 -157.86   63.34  112.45     0.002000       1.0836    2.5225    0.3642
 -160.28  123.78   70.68     0.002000       0.9290    2.5079    0.4282
 -152.25  105.44  106.29     0.002000       1.0442    3.2723    0.2879
 -154.95   78.83  103.50     0.002000       1.0051    3.9091    0.2490
 -151.89   91.55   81.99     0.002000       1.0402    1.5931    0.6068
 -154.03   92.06   94.70     0.002000       1.0001    4.7009    0.2055
 -154.40   96.68   89.03     0.002000       0.9848    1.2254    0.8361
 -151.72   98.85   96.46     0.002000       1.1524    1.7183    0.5068
 -153.17   82.30   75.01     0.002000       1.0055    3.9260    0.2473
 -150.66   83.28   85.58     0.002000       1.1466    1.7418    0.5029
 -151.70   98.36  102.52     0.002000       1.0833    1.7722    0.5227
 -154.27  112.92   88.77     0.002000       1.0028    3.6147    0.2704
 -150.61   92.52   88.41     0.002000       1.1108    1.6799    0.5387
 -151.45   93.92  100.10     0.002000       1.1474    1.7756    0.4925
 -155.09   84.14  118.16     0.002000       1.3327    2.7415    0.2702
 -153.99   89.27   83.77     0.002000       1.2240    2.1268    0.3839
 -153.25   91.09   96.84     0.002000       1.2748    2.2399    0.3496
 -154.76   90.59  100.51     0.002000       1.2780    2.2578    0.3451
 -153.89   87.38   82.11     0.002000       1.2517    2.1425    0.3723
 -152.73  116.54   97.52     0.002000       1.0084    3.1379    0.3116
 -154.56   90.54   89.60     0.002000       1.0579    1.6807    0.5642
 -159.31   89.32   88.49     0.002000       1.0734    2.1731    0.4267
 -153.33   86.82   84.54     0.002000       1.2268    2.1210    0.3842
 -154.13   91.27   82.33     0.002000       1.0004    4.5462    0.2130
 -154.94   89.81   99.30     0.002000       1.3377    2.2614    0.3287
 -153.15   85.61   69.54     0.002000       1.0221    3.6347    0.2639
 -152.10   86.03   91.23     0.002000       1.0873    1.6335    0.5657
 -153.97   90.15   82.26     0.002000       1.2338    2.1340    0.3793
 -153.27   95.56   94.27     0.002000       0.9679    2.4421    0.4231
 -155.37   95.71   91.07     0.002000       0.8559    2.4427    0.4779
 -157.47   98.93   85.72     0.002000       0.9514    1.7640    0.5971
 -150.85   87.83   80.91     0.002000       1.0542    1.6555    0.5763
 -150.38   58.51   77.59     0.002000       0.9338    2.6860    0.3963
 -152.62   94.92  112.84     0.002000       1.0805    3.4034    0.2674
 -154.73   78.64   98.36     0.002000       1.0014    4.1181    0.2363
 -153.27   89.85   81.96     0.002000       1.2750    2.1311    0.3679
 -158.88   83.47  101.42     0.002000       1.3804    1.9373    0.3718
 -157.85   91.57   91.27     0.002000       0.8381    2.4429    0.4868
 -156.32  118.11   75.96     0.002000       1.0149    3.0362    0.3213
 -152.99   71.36   91.26     0.002000       0.7123    2.4394    0.5769
 -159.95   57.89  113.74     0.002000       1.0492    1.5374    0.6243
 -147.54   94.94   95.70     0.002000       0.9794    2.2125    0.4653
 -155.79   89.77   92.27     0.002000       1.2489    2.3384    0.3402
 -149.06   87.74   80.32     0.002000       0.7401    2.1830    0.6228
 -154.82   89.90   78.37     0.002000       1.3113    2.2581    0.3360
 -152.21   82.98   60.99     0.002000       1.2447    2.6090    0.3051
 -154.39   84.78  113.88     0.002000       1.0898    3.5056    0.2572
 -155.39   58.46   97.88     0.002000       1.0004    2.9073    0.3408
 -153.56   94.93   92.87     0.002000       1.1050    1.7135    0.5297
 -151.66  100.28  114.80     0.002000       1.1486    2.7931    0.3085
 -156.11   86.87   84.06     0.002000       1.1745    2.3166    0.3656
 -155.31   98.28   92.29     0.002000       0.7451    2.4630    0.5443
 -142.08   94.51   94.34     0.002000       1.0118    1.8311    0.5462
 -154.88   83.92  114.48     0.002000       1.1170    3.3048    0.2665
 -154.62   85.66  118.52     0.002000       1.2649    2.9385    0.2653
 -153.15   65.17   86.58     0.002000       1.0039    3.4086    0.2875
 -154.54   89.46   58.37     0.002000       1.2599    2.6801    0.2924
 -154.27   86.97  107.99     0.002000       1.0083    3.8540    0.2518
 -154.10   73.94   90.89     0.002000       1.0015    4.0114    0.2429
 -152.61   92.82   85.83     0.002000       1.0353    1.5484    0.6273
 -156.29   91.11   96.14     0.002000       1.1953    2.1987    0.3790
 -155.18   91.99   99.79     0.002000       1.2493    2.1753    0.3667
 -151.61   75.75   70.48     0.002000       1.0597    3.1723    0.2933
 -153.04   62.87   88.31     0.002000       0.7272    2.6500    0.5185
 -141.90   90.62   96.37     0.002000       0.9296    1.7296    0.6293
 -153.83   49.27  100.05     0.002000       0.8320    2.3664    0.5100
 -154.01   93.74  119.42     0.002000       1.3311    2.5711    0.2888
 -152.25   50.73   87.55     0.002000       0.8620    2.7087    0.4266
 -151.28   83.67   75.51     0.002000       1.2352    1.9280    0.4204
 -155.19  100.95   73.41     0.002000       1.0083    3.7930    0.2560
 -154.33  116.14   98.77     0.002000       0.8136    2.3393    0.5239
 -152.84   51.56   88.25     0.002000       0.8375    2.8180    0.4216
 -154.34   91.82   99.81     0.002000       1.2832    2.1879    0.3551
 -153.77   56.80   89.39     0.002000       0.9754    2.9428    0.3449
 -150.86   96.97   95.93     0.002000       0.8762    2.4524    0.4670
 -153.63   76.35   84.56     0.002000       1.0020    4.0787    0.2383
 -149.93   73.01   94.61     0.002000       0.7739    2.4088    0.5396
 -153.49  121.24   96.13     0.002000       0.7692    2.4702    0.5251
 -154.06   91.20   97.48     0.002000       1.2139    2.1193    0.3886
 -153.71   89.50   93.01     0.002000       1.3489    2.0605    0.3593
 -154.04   89.71   77.99     0.002000       1.0009    4.2857    0.2266
 -157.42   65.48  111.05     0.002000       1.0696    2.7091    0.3427
 -152.24   82.38   64.03     0.002000       1.1545    2.8499    0.3003
 -154.34   97.40   94.93     0.002000       0.9002    2.4640    0.4505
 -159.60  115.11   62.83     0.002000       1.1056    2.4873    0.3614
 -154.30   90.92   79.64     0.002000       1.0007    4.4029    0.2199
 -155.78   88.67   67.25     0.002000       1.4131    2.2171    0.3165
 -153.42   89.73   82.77     0.002000       1.3067    2.1905    0.3487
 -148.35   85.08   83.14     0.002000       0.8820    2.3256    0.4910
 -152.65   75.70   77.55     0.002000       1.0129    3.7101    0.2605
 -151.40   64.85   73.96     0.002000       0.9889    2.6671    0.3762
 -151.74   77.39   73.90     0.002000       1.0739    1.8280    0.5106
 -151.60   68.40   74.97     0.002000       1.0300    3.0774    0.3113
 -154.21   91.44   73.25     0.002000       1.0023    4.0049    0.2431
 -151.49   79.65   76.16     0.002000       1.0849    1.7749    0.5211
 -154.27   87.49   93.21     0.002000       1.0001    4.6450    0.2081
 -153.74   89.60   90.03     0.002000       1.2335    2.0742    0.3910
 -154.26   88.20   84.21     0.002000       1.1975    2.1883    0.3811
 -154.90   97.29   90.22     0.002000       0.8463    2.5580    0.4612
 -154.21   88.70   83.28     0.002000       1.2749    2.1259    0.3681
 -147.49   89.59   90.29     0.002000       0.9992    2.2146    0.4558
 -152.62  108.20  109.52     0.002000       1.0716    2.1318    0.4365
 -156.29   90.25   95.43     0.002000       1.2763    2.1238    0.3673
 -152.17  100.19  116.54     0.002000       1.1962    2.5545    0.3245
 -151.57   75.91   65.90     0.002000       1.1179    2.5645    0.3460
 -152.57  122.24   94.98     0.002000       0.9781    2.9779    0.3397
 -154.26   93.08   91.52     0.002000       0.8984    2.5500    0.4360
 -153.13   87.52   86.17     0.002000       1.2009    2.0900    0.3988
 -154.05   98.56   88.75     0.002000       0.7215    2.4377    0.5694
 -153.25   89.86   82.64     0.002000       1.2416    2.2886    0.3514
 -149.65   90.72   87.73     0.002000       1.1480    1.7984    0.4868
 -152.95   99.23  107.23     0.002000       1.0262    3.6113    0.2644
 -160.04   96.04   93.07     0.002000       1.0166    2.0673    0.4746
 -154.19   89.52   91.41     0.002000       1.3071    2.0340    0.3758
 -157.42  120.78   71.47     0.002000       1.0353    2.7361    0.3509
 -154.11   89.05   76.52     0.002000       1.0011    4.1824    0.2323
 -153.58   89.03   82.21     0.002000       1.2853    2.0725    0.3753
 -154.78   90.99  120.13     0.002000       1.2554    2.6784    0.2935
 -152.06   95.31   95.88     0.002000       1.1710    1.7642    0.4855
 -158.64   68.77   78.96     0.002000       1.0605    1.7696    0.5338
 -151.94   90.15   90.48     0.002000       1.1940    2.1009    0.3993
 -155.42   91.71   94.00     0.002000       1.1637    2.2190    0.3863
 -156.19   93.33   91.07     0.002000       0.9923    1.7927    0.5630
 -154.68  100.34   83.72     0.002000       1.0011    4.3153    0.2248
 -152.90  122.03   93.27     0.002000       0.9835    3.0605    0.3284
 -152.60  100.34  105.69     0.002000       1.0777    1.8631    0.4987
 -152.95   85.71   84.78     0.002000       0.8993    2.5572    0.4349
 -153.15   94.20  110.95     0.002000       1.0390    3.5900    0.2629
 -149.11   92.88   87.97     0.002000       0.9138    2.3278    0.4733
 -153.97   90.81   97.93     0.002000       1.2056    2.1481    0.3859
 -153.58   86.82   81.69     0.002000       1.3070    2.0950    0.3643
 -155.01   76.20  102.91     0.002000       1.0081    3.8516    0.2523
 -152.62   81.94   82.77     0.002000       0.8288    2.5161    0.4799
 -155.99   53.38  100.48     0.002000       0.9738    2.6146    0.3913
 -153.10   96.13  106.21     0.002000       1.0084    3.9472    0.2454
 -167.48   95.03   89.54     0.002000       0.9997    1.5945    0.6289
 -153.51   88.89   60.50     0.002000       1.2914    2.7083    0.2825
 -151.06   96.27   94.53     0.002000       0.9528    2.2455    0.4695
 -152.70   80.84   73.80     0.002000       1.0131    3.8394    0.2514
 -152.37   56.45   82.70     0.002000       0.7695    2.4986    0.5189
 -153.77   75.73   73.84     0.002000       1.0659    2.0082    0.4663
 -155.17   95.67   60.72     0.002000       1.3608    2.6750    0.2712
 -152.18   96.66   94.52     0.002000       0.9738    2.3538    0.4373
 -154.76   88.75  106.10     0.002000       1.4164    2.2696    0.3088
 -142.25   91.89   90.24     0.002000       0.9896    1.8836    0.5431
 -154.73   81.08  100.41     0.002000       1.0014    4.1462    0.2346
 -149.72   92.18   92.09     0.002000       1.0381    2.1160    0.4582
 -149.86   93.37   91.17     0.002000       1.1509    1.8503    0.4718
 -155.73  131.32   82.90     0.002000       0.8300    2.5225    0.4775
 -155.36   85.83   89.00     0.002000       1.0396    1.7339    0.5559
 -153.69  112.95   91.23     0.002000       1.0037    3.6286    0.2692
 -154.11   90.13   85.73     0.002000       1.2880    2.0453    0.3793
 -155.39   88.59   86.76     0.002000       1.2631    2.1500    0.3670
 -154.06   89.03   76.74     0.002000       1.3346    2.2230    0.3356
 -150.86   79.47   75.28     0.002000       1.1537    1.8087    0.4806
 -154.94   90.74   98.72     0.002000       1.3454    2.2383    0.3302
 -153.99   87.21   70.69     0.002000       1.0079    3.7359    0.2597
 -149.76   88.39   90.63     0.002000       1.0560    1.5732    0.6060
 -156.57   94.43   95.61     0.002000       1.1314    2.2846    0.3851
 -154.19   86.28   99.10     0.002000       1.0007    4.4796    0.2165
 -154.69   91.17   94.94     0.002000       1.2369    2.1451    0.3762
 -155.24   99.66   70.64     0.002000       1.0174    3.6896    0.2611
 -156.66   77.60  117.70     0.002000       1.3154    2.5286    0.2976
 -152.66  127.30   93.33     0.002000       0.7693    2.6877    0.4821
 -154.87  103.94   83.04     0.002000       1.0016    4.0612    0.2396
 -152.79   96.00  116.53     0.002000       1.3127    2.3602    0.3203
 -153.24   92.56   93.22     0.002000       0.9436    2.5349    0.4180
 -153.99   71.97   90.10     0.002000       1.0019    3.8712    0.2520
 -153.50   87.75   71.86     0.002000       1.3885    2.2091    0.3243
 -153.42   64.95   88.93     0.002000       1.0030    3.4723    0.2824
 -154.85   89.36   78.54     0.002000       1.3457    2.2315    0.3312
 -155.98  128.21   80.01     0.002000       0.8422    2.6120    0.4544
 -151.87   99.24  116.22     0.002000       1.1933    2.6213    0.3169
 -152.24   76.29   72.30     0.002000       1.0378    3.3599    0.2819
 -152.82   95.58  112.03     0.002000       1.0663    3.4204    0.2693
 -157.96   51.28  103.82     0.002000       0.8436    2.4285    0.4888
 -154.56   94.00   88.22     0.002000       1.0126    1.5572    0.6373
 -149.96   89.81   94.70     0.002000       1.1464    1.8069    0.4850
 -155.35   51.11  101.28     0.002000       0.9464    2.5572    0.4128
 -154.08   91.55   62.56     0.002000       1.1472    3.1855    0.2693
 -157.39   87.71   86.09     0.002000       1.0729    2.1886    0.4247
 -154.26   94.38   77.72     0.002000       1.0012    4.3610    0.2226
 -153.88   88.49   87.09     0.002000       1.2141    2.1521    0.3825
 -156.26   96.72   90.79     0.002000       0.8546    2.4482    0.4771
 -155.43   85.17  118.98     0.002000       1.4014    2.4816    0.2843
 -155.68   82.91   90.46     0.002000       1.0260    1.7190    0.5682
 -151.55   76.84   68.16     0.002000       1.0862    2.9844    0.3046
 -155.40   58.89   97.29     0.002000       0.9973    2.9641    0.3350
 -153.66   95.63  118.20     0.002000       1.3432    2.3963    0.3078
 -156.81   55.41  100.56     0.002000       0.9604    2.7607    0.3748
 -151.69   60.04   91.82     0.002000       0.7337    2.4916    0.5488
 -153.90   70.74   89.16     0.002000       1.0023    3.8263    0.2549
 -152.87  118.55   96.79     0.002000       1.0011    3.0474    0.3236
 -150.67   89.15   85.43     0.002000       1.1238    1.7097    0.5230
 -152.13  110.63  101.29     0.002000       1.0225    3.3990    0.2829
 -153.03   60.95   86.86     0.002000       0.7169    2.5447    0.5479
 -154.65   92.68   81.27     0.002000       1.0238    1.6452    0.5960
 -152.34   81.63   64.39     0.002000       1.2885    2.1761    0.3550
 -152.64   53.35   83.66     0.002000       0.7714    2.5940    0.4979
 -155.68  115.38   89.38     0.002000       0.7096    2.5850    0.5441
 -144.46   89.96   86.86     0.002000       0.9658    1.9222    0.5446
 -150.42   85.19   83.94     0.002000       1.0787    1.6544    0.5637
 -155.21   99.83   75.08     0.002000       1.0027    3.9251    0.2482
 -154.39   86.87   80.32     0.002000       1.2156    2.2537    0.3640
 -149.68   88.76   89.25     0.002000       1.1559    1.8636    0.4664
 -155.35  101.93   74.22     0.002000       1.0060    3.8112    0.2553
 -154.42   87.65   64.88     0.002000       1.4373    2.2781    0.3028
 -158.29   85.43   87.70     0.002000       1.1208    2.2168    0.4003
 -153.34   90.70   84.39     0.002000       1.2368    2.3056    0.3500
 -153.67   89.94  118.81     0.002000       1.3059    2.7675    0.2733
 -153.99   92.43   92.93     0.002000       1.0001    4.7655    0.2027
 -155.53  125.46   86.22     0.002000       0.9388    2.8670    0.3685
 -159.71  105.13   95.64     0.002000       1.0053    1.9347    0.5141
 -153.13   94.72  114.59     0.002000       1.3703    2.2647    0.3200
 -155.18   98.22   62.91     0.002000       1.1810    3.1600    0.2638
 -153.32   87.99   78.11     0.002000       1.3092    2.1666    0.3517
 -151.07  100.69   97.62     0.002000       0.9018    2.2997    0.4840
 -151.03   71.19   67.82     0.002000       1.0799    2.3879    0.3858
 -150.94   79.61   74.95     0.002000       1.2120    1.8294    0.4519
 -154.73   74.09   96.53     0.002000       1.0019    3.9136    0.2493
 -151.09   82.48   80.62     0.002000       1.2636    1.8383    0.4313
 -154.53   87.49   68.13     0.002000       1.4321    2.2259    0.3113
 -154.86   90.95   93.44     0.002000       0.7353    2.4882    0.5465
 -154.16   92.44   63.01     0.002000       1.1382    3.2233    0.2682
 -155.60  119.77   81.79     0.002000       1.0023    3.1197    0.3159
 -153.87   90.20   87.74     0.002000       1.3189    2.0622    0.3672
 -153.87   84.48   85.40     0.002000       1.0003    4.5690    0.2119
 -151.78   50.82   86.96     0.002000       0.7741    2.6389    0.4888
 -151.42  111.90  107.11     0.002000       1.0447    2.7587    0.3436
 -157.96  128.04   71.50     0.002000       0.9796    2.3613    0.4324
 -154.30   94.47   85.96     0.002000       1.0552    1.6409    0.5796
 -143.26   81.84   75.90     0.002000       0.9247    1.9596    0.5576
 -157.25   89.21   90.80     0.002000       0.8422    2.2890    0.5181
 -152.09   88.65   87.04     0.002000       1.2206    2.0358    0.4029
 -152.30   93.55   96.03     0.002000       1.2704    2.0501    0.3840
 -153.96   96.92   92.91     0.002000       1.0003    4.5705    0.2117
 -155.65   62.05   99.18     0.002000       1.0039    3.0868    0.3191
 -153.42   97.29  102.27     0.002000       1.0026    4.0779    0.2383
 -146.73   81.31   78.46     0.002000       0.9815    2.0547    0.5001
 -160.72   89.74   92.19     0.002000       1.0500    2.0001    0.4751
 -155.78   81.66  117.48     0.002000       1.1799    2.9771    0.2807
 -153.80   93.88  102.01     0.002000       1.0010    4.1979    0.2315
 -152.24   79.96   82.63     0.002000       0.8830    2.3763    0.4776
 -155.33   81.41  113.41     0.002000       1.0927    3.3428    0.2693
 -154.15   87.65   88.57     0.002000       1.2794    2.0883    0.3737
 -152.84   96.65  107.66     0.002000       1.0175    3.8235    0.2516
 -155.80   91.41   80.33     0.002000       1.3132    2.2723    0.3329
 -157.68  130.44   77.04     0.002000       0.8716    2.4521    0.4680
 -151.80  116.76   85.70     0.002000       0.7509    2.4878    0.5373
 -153.91   92.80   95.49     0.002000       1.2472    2.0920    0.3831
 -158.17   94.98   88.72     0.002000       1.2765    2.1178    0.3676
 -153.80   88.88   94.98     0.002000       1.0101    1.5751    0.6317
 -149.41   93.20   94.77     0.002000       1.1158    1.8013    0.5003
 -151.77   92.13   92.30     0.002000       1.2018    2.0817    0.4004
 -153.84   88.70  118.69     0.002000       1.2417    3.0235    0.2625
 -151.72   53.98   81.26     0.002000       0.8542    2.6549    0.4386
 -152.32   97.60  103.32     0.002000       1.2922    1.9128    0.4045
 -153.79   96.12   96.18     0.002000       1.0004    4.5130    0.2146
 -153.33   87.82   80.64     0.002000       1.2552    2.2279    0.3571
 -154.41   90.87   62.83     0.002000       1.4247    2.3887    0.2910
 -152.18  106.84  107.12     0.002000       1.0453    3.0756    0.3067
 -152.92   55.12   85.85     0.002000       0.9441    2.8664    0.3663
 -154.12   90.54  101.88     0.002000       1.0008    4.2789    0.2269
 -155.25   90.11  104.18     0.002000       1.3476    2.2357    0.3299
 -156.81   95.75   92.24     0.002000       0.8175    2.3201    0.5264
 -156.33   71.82   81.98     0.002000       0.8958    2.0597    0.5415
 -153.44   95.09  103.84     0.002000       1.0022    4.0817    0.2384
 -155.43   59.36   99.76     0.002000       1.0056    2.9485    0.3344
 -159.75   99.88   90.60     0.002000       1.2058    1.9472    0.4245
 -153.55   65.01   87.14     0.002000       1.0017    3.3833    0.2902
 -151.89   99.38  113.88     0.002000       1.1254    2.9915    0.2933
 -152.52   85.22   82.47     0.002000       1.3409    1.9503    0.3821
 -154.77   84.69   83.90     0.002000       0.9932    1.6183    0.6249
 -150.93   85.81   80.73     0.002000       1.0658    1.6898    0.5583
 -151.05   69.56   71.84     0.002000       1.0514    2.8856    0.3261
 -154.25   86.19  100.38     0.002000       1.0008    4.4259    0.2192
 -159.51   97.62   93.66     0.002000       0.9947    2.0616    0.4869
 -155.53  122.45   83.93     0.002000       0.9935    2.9291    0.3402
 -147.54   92.74   91.13     0.002000       0.9985    2.0984    0.4815
 -160.36  104.69   98.82     0.002000       1.2644    1.6322    0.4849
 -154.11   90.40   77.69     0.002000       1.0009    4.2985    0.2258
 -156.63   85.22   86.67     0.002000       0.7802    2.4476    0.5224
 -155.82   97.34   94.89     0.002000       0.9778    1.8985    0.5390
 -150.90   60.12   76.69     0.002000       0.8871    2.5134    0.4467
 -154.06   90.89   80.37     0.002000       1.0006    4.4652    0.2171
 -149.72   91.66   86.14     0.002000       1.1274    1.7119    0.5210
 -156.44   86.75   99.23     0.002000       1.3468    2.2311    0.3303
 -159.32   72.32   80.52     0.002000       1.0864    1.8129    0.5080
 -153.54  103.21  102.16     0.002000       1.0751    1.7800    0.5235
 -153.46   93.50   98.79     0.002000       1.3949    2.0566    0.3475
 -156.64   94.57   89.89     0.002000       0.8250    2.4080    0.5027
MORPHOLOGY AT STRAIN =    2.0000  FOR PHASE  1
   1.133   3.874   0.228  <-- AXES OF PHASE ELLIPSOID
 -161.94   90.00   90.00  <-- EULER ANGLES OF PHASE ELLIPSOID (deg)
   1.181   4.519   0.219  <-- AVERAGE OF GRAIN AXES FOR PHASE
   0.234   0.387   0.382  <-- STANDARD DEV OF AVG GRAIN AXES FOR PHASE
B       500
 -163.64  121.31   77.02     0.002000       1.0313    3.6193    0.2681
 -161.42   97.94  101.00     0.002000       1.1083    5.6072    0.1579
 -162.02   88.33  101.07     0.002000       1.0088    7.5320    0.1288
 -162.09   89.82   87.55     0.002000       1.4626    3.2211    0.2118
 -162.07   92.17   96.53     0.002000       1.3710    3.4793    0.2090
 -162.05   88.67   87.16     0.002000       1.0002    9.0145    0.1075
 -160.07   88.15   87.09     0.002000       1.2889    3.1191    0.2498
 -161.66   84.58   81.71     0.002000       1.0304    7.5427    0.1253
 -162.60   89.44   82.38     0.002000       1.5261    3.5876    0.1812
 -162.19   70.57   95.25     0.002000       1.0520    5.4711    0.1718
 -162.18   86.12   96.36     0.002000       1.0014    8.1457    0.1195
 -162.03   93.73   92.63     0.002000       1.0012    8.8503    0.1093
 -162.12   86.72   83.81     0.002000       1.0711    2.9877    0.3120
 -161.27   94.95   95.86     0.002000       1.3786    2.8466    0.2544
 -162.34   97.13   93.84     0.002000       0.8713    3.6018    0.3174
 -157.78   86.54   87.07     0.002000       0.9129    3.3416    0.3316
 -162.05   84.81   91.04     0.002000       1.0020    8.7874    0.1102
 -161.77   53.79   94.81     0.002000       0.7283    3.8115    0.3614
 -161.38   70.90   93.34     0.002000       0.5910    3.9576    0.4292
 -161.87  103.37   90.42     0.002000       1.0498    6.5301    0.1428
 -161.68   82.44   80.04     0.002000       1.1110    3.3985    0.2633
 -161.39   94.75  103.25     0.002000       1.1151    6.2143    0.1415
 -162.05   96.58   90.31     0.002000       1.0099    8.3889    0.1145
 -161.82   91.15  102.47     0.002000       1.0368    7.1364    0.1323
 -162.05   90.43   90.62     0.002000       1.3569    3.4132    0.2155
 -163.22   99.47   95.71     0.002000       1.5862    2.5796    0.2435
 -163.00   92.15   93.90     0.002000       1.2934    3.6144    0.2124
 -162.11   89.50   76.55     0.002000       1.7315    3.5779    0.1599
 -157.05   85.76   86.67     0.002000       0.9941    3.5690    0.2858
 -162.82   89.48  108.34     0.002000       1.7970    3.5425    0.1549
 -162.93   92.28   92.78     0.002000       1.2639    3.5075    0.2244
 -161.55   88.62   67.92     0.002000       1.4227    4.7438    0.1458
 -162.07   88.66   75.27     0.002000       1.8279    3.2786    0.1653
 -157.23   82.10   82.23     0.002000       0.9233    3.5129    0.3119
 -162.49   86.44  117.48     0.002000       1.7982    4.5100    0.1211
 -161.20   84.61   77.38     0.002000       1.4405    3.0619    0.2257
 -161.58   92.76  105.31     0.002000       1.1531    5.7864    0.1471
 -161.06  113.30   92.76     0.002000       0.8411    4.3161    0.2742
 -162.94   83.79   87.45     0.002000       0.9180    3.4560    0.3142
 -160.78   86.31   86.54     0.002000       1.2672    2.8144    0.2808
 -161.05   70.26   84.48     0.002000       0.9708    4.9958    0.2037
 -163.04   87.00   88.28     0.002000       1.3413    3.5812    0.2066
 -162.00   91.93   95.26     0.002000       1.4159    3.4590    0.2035
 -162.89   97.91   65.69     0.002000       1.6144    4.9078    0.1243
 -162.31   91.00   98.14     0.002000       1.6981    3.3418    0.1749
 -160.09   88.40   90.03     0.002000       1.2310    2.6849    0.3037
 -162.26  114.42   86.04     0.002000       1.0093    4.7617    0.2063
 -162.06   92.53   94.64     0.002000       1.3783    3.5007    0.2066
 -162.47   92.09   64.99     0.002000       1.9037    3.8897    0.1329
 -162.52  103.26   80.07     0.002000       1.1028    6.2482    0.1429
 -162.11  100.57   87.83     0.002000       1.0285    7.3764    0.1286
 -162.76   91.19   94.42     0.002000       1.3099    3.7481    0.2023
 -161.74   95.17   96.24     0.002000       1.3178    2.9024    0.2606
 -161.96   90.16   81.22     0.002000       1.0016    8.0744    0.1205
 -161.85   59.10   89.86     0.002000       0.7170    4.5207    0.3074
 -159.06   94.79   94.77     0.002000       0.6443    3.6650    0.4263
 -160.78   81.57   85.29     0.002000       0.8218    3.8729    0.3151
 -161.71   91.26   65.25     0.002000       1.4953    5.2404    0.1254
 -162.13   92.71   89.91     0.002000       1.0002    8.9605    0.1080
 -161.81   92.44   87.85     0.002000       1.0812    2.7474    0.3368
 -162.14   88.77   93.54     0.002000       1.0003    8.7487    0.1108
 -161.99   91.26   92.93     0.002000       1.4980    3.3962    0.1959
 -160.63   97.08   89.22     0.002000       0.6851    4.1229    0.3557
 -162.18   91.37   85.59     0.002000       1.0004    8.6609    0.1118
 -162.69   89.48   86.59     0.002000       1.3982    3.3600    0.2118
 -162.36   91.38   98.78     0.002000       1.5344    3.5354    0.1830
 -161.75   91.48  103.52     0.002000       1.0699    6.7398    0.1358
 -161.92   95.77  101.96     0.002000       1.2543    3.4092    0.2320
 -161.11  100.61   99.79     0.002000       1.1170    5.5117    0.1597
 -162.53   94.97   94.74     0.002000       0.9754    3.2777    0.3117
 -160.38   88.48   87.22     0.002000       1.2320    2.7960    0.2912
 -161.45   92.27   93.16     0.002000       1.3532    3.4161    0.2162
 -161.98   82.08   90.64     0.002000       1.0117    8.1453    0.1181
 -162.40   85.31   87.32     0.002000       0.8969    3.9361    0.2828
 -161.76   96.47   96.54     0.002000       1.0342    7.7177    0.1217
 -162.12   85.63   91.18     0.002000       1.0010    8.6508    0.1120
 -162.13   86.04  103.87     0.002000       1.0743    6.9476    0.1315
 -162.22   86.91  115.33     0.002000       1.5767    5.2315    0.1190
 -162.41   91.31   96.49     0.002000       1.4923    3.6122    0.1842
 -161.74   90.70  104.52     0.002000       1.0912    6.6387    0.1354
 -161.87   91.77   99.10     0.002000       1.5514    3.5038    0.1830
 -161.70   82.08   85.84     0.002000       1.0258    7.9414    0.1194
 -162.13   80.25   94.45     0.002000       1.0189    7.4344    0.1292
 -162.81   91.26   96.51     0.002000       1.4146    3.4071    0.2062
 -162.12   89.04   88.59     0.002000       1.0001    8.9544    0.1081
 -162.16   91.58   97.39     0.002000       1.4042    3.5468    0.1999
 -161.21   91.84   91.21     0.002000       1.3662    3.3468    0.2188
 -163.95   86.85   89.08     0.002000       0.7917    3.5970    0.3499
 -160.97   94.45   98.65     0.002000       1.5040    3.0292    0.2190
 -159.95   86.83   85.15     0.002000       1.2378    2.9069    0.2791
 -162.08   88.89  102.08     0.002000       1.0127    7.1205    0.1357
 -161.98   78.76   91.43     0.002000       1.0259    7.2844    0.1307
 -155.93   91.47   92.20     0.002000       0.8460    3.1546    0.3796
 -161.33   96.06  105.20     0.002000       1.2030    4.5221    0.1813
 -162.30   91.98   93.35     0.002000       1.3348    3.5155    0.2124
 -161.60   87.80   76.80     0.002000       1.0579    6.8882    0.1344
 -162.71  105.98   82.08     0.002000       1.0415    5.6197    0.1685
 -160.50   93.29   91.51     0.002000       0.9460    3.6778    0.2891
 -158.51  100.89   83.68     0.002000       0.6543    3.3804    0.4562
 -160.07   92.34   90.95     0.002000       1.2674    3.1271    0.2534
 -160.96   96.85   94.93     0.002000       0.9229    3.9115    0.2778
 -160.81   91.92   92.26     0.002000       1.3382    3.3468    0.2237
 -162.56   89.72   99.47     0.002000       1.6948    3.5190    0.1660
 -162.26   93.89   65.27     0.002000       1.4547    5.6256    0.1199
 -161.21   91.10   89.97     0.002000       1.1651    2.7257    0.3153
 -162.75   91.31   91.02     0.002000       1.3283    3.4410    0.2177
 -161.50   81.54   83.38     0.002000       1.0477    7.3361    0.1269
 -162.54   91.29   72.21     0.002000       1.8573    3.5972    0.1478
 -161.44   92.93   99.15     0.002000       1.6727    3.1710    0.1876
 -161.86   89.22   85.86     0.002000       1.3536    3.3387    0.2211
 -161.74   90.83   75.08     0.002000       1.0660    7.1588    0.1284
 -162.36  117.46   91.22     0.002000       0.6738    4.3717    0.3379
 -162.08   54.88   98.78     0.002000       0.8584    3.5017    0.3342
 -161.92   95.57   97.90     0.002000       1.1052    3.1461    0.2866
 -162.92   94.03   90.88     0.002000       1.7908    3.0831    0.1795
 -162.67   92.73   66.85     0.002000       1.9456    3.5968    0.1409
 -160.34   97.72   94.84     0.002000       0.8076    4.0853    0.3044
 -162.50  105.27   81.70     0.002000       1.0781    6.0850    0.1502
 -161.00   84.24   80.06     0.002000       1.2070    2.9954    0.2763
 -161.24   98.36  101.88     0.002000       1.1283    5.2703    0.1653
 -161.78   85.19   83.07     0.002000       1.0146    7.9702    0.1202
 -159.87   90.27   88.50     0.002000       1.2629    3.0272    0.2629
 -160.62   69.32   84.58     0.002000       0.9147    4.6374    0.2339
 -162.82  120.40   85.25     0.002000       0.6637    4.1462    0.3640
 -161.63   86.67   78.23     0.002000       1.0466    7.0239    0.1329
 -161.26  108.58   93.22     0.002000       1.0547    5.3126    0.1760
 -158.38   88.46   88.98     0.002000       0.9968    3.8095    0.2666
 -161.79   89.36   66.34     0.002000       1.4678    4.8749    0.1372
 -161.40   93.88  106.13     0.002000       1.5932    3.2754    0.1902
 -162.11   87.00   97.19     0.002000       1.0013    8.2645    0.1178
 -160.23   87.71   85.92     0.002000       1.2742    3.1433    0.2506
 -163.51   88.25   86.47     0.002000       0.8958    3.3342    0.3338
 -161.43   90.41   92.45     0.002000       1.1397    2.7110    0.3239
 -162.52  113.40   83.65     0.002000       1.0397    4.7401    0.2013
 -161.70   86.30   69.60     0.002000       1.4609    3.8343    0.1763
 -161.01   66.99   96.31     0.002000       0.6670    3.9423    0.3830
 -162.76  123.53   81.30     0.002000       0.8240    3.9067    0.3115
 -161.74   90.61   93.57     0.002000       1.3960    3.4377    0.2081
 -167.33   90.55   90.33     0.002000       0.9440    1.9750    0.5384
 -161.91   95.38  102.53     0.002000       1.2911    3.3658    0.2283
 -162.15   78.86   95.02     0.002000       1.0286    7.2293    0.1318
 -162.63  105.21   80.19     0.002000       1.1120    5.7578    0.1541
 -161.67   93.03   97.06     0.002000       1.5562    3.1917    0.2005
 -161.54   79.30   85.42     0.002000       1.0493    6.8949    0.1351
 -160.94   87.15   81.98     0.002000       1.2771    2.8347    0.2764
 -162.10   87.95   82.08     0.002000       1.4165    3.5358    0.1988
 -162.51   89.98   99.26     0.002000       1.5748    3.6430    0.1728
 -156.56   86.50   86.89     0.002000       1.0375    3.2683    0.2990
 -160.24   90.26   88.79     0.002000       1.1998    2.7288    0.3065
 -157.71   97.82   96.33     0.002000       0.9458    3.4337    0.3113
 -161.44   85.93   69.41     0.002000       1.4961    3.7798    0.1750
 -162.92   90.94   97.08     0.002000       1.4638    3.3572    0.2021
 -162.34   93.96   90.03     0.002000       0.6989    3.9258    0.3645
 -162.63   97.17   92.49     0.002000       0.8854    3.6692    0.3067
 -159.20   85.49   85.21     0.002000       1.0366    3.5583    0.2736
 -162.28  100.02   82.84     0.002000       1.0284    7.1806    0.1326
 -160.83   71.70   84.12     0.002000       1.0361    5.0558    0.1887
 -161.51   95.15  100.94     0.002000       1.0697    6.9714    0.1311
 -162.16   90.08   88.10     0.002000       1.4396    3.2545    0.2129
 -161.47   89.98   86.90     0.002000       1.3720    3.4085    0.2138
 -161.22   95.43  102.63     0.002000       1.4119    3.1761    0.2219
 -162.80   84.98  114.86     0.002000       1.9174    4.0646    0.1263
 -162.86   94.05   92.22     0.002000       0.8713    3.9908    0.2866
 -161.48   82.41   76.16     0.002000       1.1630    4.2793    0.1981
 -159.80   96.84   93.19     0.002000       0.8702    3.6467    0.3173
 -162.20   96.22   96.68     0.002000       1.0552    3.3894    0.2782
 -162.25   96.65   80.77     0.002000       1.0108    7.5510    0.1282
 -161.99   84.46   89.38     0.002000       1.0035    8.7636    0.1103
 -164.43   72.71   87.08     0.002000       0.9514    1.7952    0.5892
 -163.25   87.41   93.88     0.002000       1.7059    3.3472    0.1731
 -162.12   91.52   96.58     0.002000       1.3499    3.4546    0.2139
 -162.20   83.78   95.07     0.002000       1.0041    8.0190    0.1211
 -161.77   92.07  100.53     0.002000       1.0175    7.7755    0.1234
 -160.34   90.85   90.29     0.002000       0.9997    4.0164    0.2507
 -161.19   65.16   89.57     0.002000       0.9777    4.9087    0.2067
 -162.13   89.85   90.96     0.002000       1.4755    3.2313    0.2092
 -162.22   88.69   82.00     0.002000       1.4193    3.5114    0.1997
 -161.26   85.66   73.51     0.002000       1.5495    3.2767    0.1956
 -162.68   85.27   87.78     0.002000       0.7315    3.7528    0.3639
 -163.62   86.35   90.81     0.002000       1.6034    3.2016    0.1928
 -162.33   92.55   61.04     0.002000       1.6912    4.7453    0.1222
 -163.64   93.93   93.32     0.002000       1.1808    3.3320    0.2527
 -162.02   83.64   80.15     0.002000       1.1618    3.4455    0.2478
 -161.21  119.47   89.72     0.002000       0.6288    4.0840    0.3898
 -163.19   90.37   82.93     0.002000       1.4227    3.5571    0.1958
 -162.66   86.71  113.49     0.002000       1.9557    3.8142    0.1320
 -162.08   91.18   92.66     0.002000       1.6395    3.2870    0.1846
 -161.30   91.92   94.82     0.002000       1.1333    2.7301    0.3236
 -160.09   89.38   88.81     0.002000       1.2853    2.9389    0.2658
 -162.03   90.57   94.19     0.002000       1.3743    3.3210    0.2188
 -161.21   96.08   99.09     0.002000       1.2398    3.0342    0.2652
 -162.52   89.28  103.01     0.002000       1.7772    3.5844    0.1552
 -162.79   75.51  102.05     0.002000       1.1985    5.3030    0.1556
 -164.20   82.25   89.58     0.002000       0.9820    1.8108    0.5657
 -162.35   89.75   85.55     0.002000       1.3235    3.8010    0.1977
 -161.38   84.64   87.27     0.002000       0.8351    3.8983    0.3078
 -162.15   94.89   83.94     0.002000       1.0022    8.2846    0.1173
 -161.93   93.90   95.19     0.002000       1.0046    8.5116    0.1135
 -161.42  102.22   96.32     0.002000       1.0869    5.9323    0.1521
 -161.37  114.72   91.55     0.002000       0.8972    4.4188    0.2506
 -162.04  103.35   88.77     0.002000       1.0438    6.6179    0.1417
 -161.66   93.47  108.72     0.002000       1.5480    3.5352    0.1810
 -160.20   93.31   94.00     0.002000       1.2159    2.7817    0.2967
 -155.30   96.44   96.41     0.002000       0.9591    3.2099    0.3295
 -162.04   91.98   96.24     0.002000       1.3754    3.4290    0.2115
 -161.75   88.00   85.40     0.002000       1.0640    2.7352    0.3439
 -162.34   99.35   80.35     0.002000       1.0426    7.0505    0.1335
 -160.49   97.85   92.38     0.002000       0.7668    3.8050    0.3443
 -161.66   79.98   85.99     0.002000       1.0409    7.0872    0.1323
 -162.81   68.36  100.00     0.002000       1.0963    4.5520    0.1991
 -163.51  117.79   82.19     0.002000       0.9287    4.2733    0.2509
 -161.47   95.16  102.78     0.002000       1.1123    5.9859    0.1473
 -162.19   81.07   95.53     0.002000       1.0159    7.4656    0.1290
 -159.64   90.24   85.63     0.002000       1.1824    2.6415    0.3217
 -162.08   90.98   93.36     0.002000       1.0001    9.0596    0.1068
 -162.12  104.72   90.18     0.002000       0.9775    1.7404    0.5923
 -160.55   94.43   93.57     0.002000       1.3214    2.8692    0.2642
 -161.74   87.72   79.25     0.002000       1.0190    7.5532    0.1268
 -160.25   86.17   86.48     0.002000       1.2931    2.9441    0.2635
 -160.63   94.20   97.95     0.002000       1.2563    2.9181    0.2732
 -161.68  103.17   92.51     0.002000       1.0605    6.5271    0.1413
 -159.89   92.03   90.62     0.002000       1.2618    2.8271    0.2816
 -160.70   92.46   96.25     0.002000       1.3318    2.9167    0.2578
 -162.52   85.11  115.94     0.002000       1.6782    5.0167    0.1167
 -162.05   89.31   85.93     0.002000       1.3685    3.3780    0.2159
 -161.90   91.46   95.58     0.002000       1.4289    3.6407    0.1916
 -162.41   91.03   98.00     0.002000       1.4293    3.6267    0.1917
 -161.97   87.93   84.00     0.002000       1.4006    3.4326    0.2074
 -161.23  102.20   97.85     0.002000       1.1025    5.5501    0.1606
 -160.43   89.97   90.98     0.002000       1.1961    2.7186    0.3085
 -164.07   88.95   87.35     0.002000       1.1879    3.3791    0.2472
 -161.74   87.78   85.80     0.002000       1.3750    3.4026    0.2134
 -162.11   92.36   86.00     0.002000       1.0005    8.8038    0.1102
 -162.56   90.36   97.13     0.002000       1.5187    3.6361    0.1797
 -161.81   90.38   76.48     0.002000       1.0344    7.1366    0.1327
 -160.02   87.45   89.02     0.002000       1.2259    2.7127    0.3019
 -162.01   89.71   84.64     0.002000       1.3806    3.3886    0.2132
 -161.69   94.54   92.86     0.002000       0.9692    4.0018    0.2579
 -162.73   94.37   91.05     0.002000       0.8466    3.9559    0.2979
 -161.74   92.91   87.91     0.002000       1.0865    2.7218    0.3384
 -159.77   88.39   84.55     0.002000       1.1992    2.7615    0.3034
 -160.73   78.47   78.60     0.002000       1.0927    4.5197    0.2003
 -161.75   89.68  106.16     0.002000       1.1393    6.6497    0.1295
 -162.09   81.66   92.44     0.002000       1.0117    7.7928    0.1237
 -161.79   88.93   83.38     0.002000       1.4258    3.4719    0.2016
 -163.85   86.14   97.74     0.002000       1.6407    3.0038    0.2010
 -163.74   91.65   91.23     0.002000       0.8272    3.8880    0.3093
 -162.24  109.85   84.99     0.002000       1.0461    5.4604    0.1730
 -161.81   86.73   89.36     0.002000       0.6207    3.8562    0.4183
 -164.41   60.32  109.05     0.002000       1.0711    2.6577    0.3535
 -159.30   94.31   93.99     0.002000       0.9730    3.8954    0.2663
 -162.91   90.51   93.31     0.002000       1.3985    3.7246    0.1903
 -159.67   89.90   85.55     0.002000       0.6346    3.6966    0.4289
 -162.47   89.32   81.30     0.002000       1.4721    3.6349    0.1856
 -161.66   88.87   65.06     0.002000       1.6752    4.1893    0.1404
 -162.26   83.77  103.82     0.002000       1.1000    7.0629    0.1264
 -161.75   68.48   91.31     0.002000       1.0265    5.1224    0.1881
 -160.74   92.53   92.03     0.002000       1.2851    2.8166    0.2767
 -161.52   91.84  110.65     0.002000       1.3775    4.9823    0.1434
 -162.94   87.72   84.97     0.002000       1.3085    3.6504    0.2078
 -162.43   95.58   93.05     0.002000       0.8524    3.6758    0.3181
 -157.10   93.61   91.32     0.002000       1.0016    3.4435    0.2939
 -162.39   83.11  104.26     0.002000       1.1323    6.6311    0.1309
 -162.38   85.36  113.98     0.002000       1.5034    5.6371    0.1159
 -161.28   76.76   84.64     0.002000       1.0674    6.1398    0.1498
 -162.25   91.90   61.05     0.002000       1.6841    4.4169    0.1321
 -162.16   85.74   99.84     0.002000       1.0089    7.5593    0.1284
 -161.76   80.32   87.58     0.002000       1.0300    7.4555    0.1270
 -159.56   91.10   87.96     0.002000       1.1673    2.5621    0.3360
 -162.98   91.20   95.07     0.002000       1.3265    3.4625    0.2164
 -162.53   91.66   96.97     0.002000       1.3960    3.4456    0.2068
 -161.33   86.01   75.04     0.002000       1.1346    5.8553    0.1478
 -161.88   75.96   87.01     0.002000       0.7277    4.0154    0.3412
 -156.69   93.17   92.41     0.002000       0.8733    3.1974    0.3626
 -160.87   53.95   93.03     0.002000       0.7235    3.9903    0.3475
 -162.18   90.16  114.99     0.002000       1.8232    3.9869    0.1353
 -160.69   68.31   85.24     0.002000       0.9127    4.4959    0.2420
 -160.99   86.59   81.04     0.002000       1.4226    3.1749    0.2212
 -162.28   99.41   82.63     0.002000       1.0244    7.2804    0.1313
 -162.02   98.04   97.21     0.002000       1.0345    3.5835    0.2679
 -160.89   67.24   85.70     0.002000       0.8702    4.6516    0.2452
 -162.21   91.69   97.33     0.002000       1.4377    3.5152    0.1969
 -161.20   70.38   86.29     0.002000       1.0277    5.1215    0.1876
 -160.69   96.19   94.24     0.002000       0.8577    4.1329    0.2831
 -161.70   82.90   84.06     0.002000       1.0293    7.6214    0.1241
 -160.45   67.87   91.79     0.002000       0.6415    4.1533    0.3773
 -161.69  101.13   96.28     0.002000       0.9700    3.7484    0.2733
 -162.02   91.12   94.87     0.002000       1.3613    3.3622    0.2181
 -162.02   90.62   94.00     0.002000       1.5333    3.3618    0.1933
 -162.08   91.93   83.02     0.002000       1.0010    8.3283    0.1167
 -162.69   70.58   99.19     0.002000       1.0876    4.9314    0.1849
 -161.62   89.59   68.28     0.002000       1.3754    5.1520    0.1387
 -162.14   95.40   93.47     0.002000       0.8968    4.0054    0.2780
 -163.50  110.97   76.92     0.002000       1.1214    4.5305    0.1953
 -162.16   92.53   84.34     0.002000       1.0008    8.4877    0.1142
 -162.80   89.17   75.68     0.002000       1.6504    3.4667    0.1729
 -161.95   88.92   83.76     0.002000       1.4607    3.5786    0.1906
 -159.65   84.23   85.16     0.002000       0.8451    4.0570    0.2938
 -161.48   84.23   79.78     0.002000       1.0574    6.9232    0.1335
 -161.16   81.94   76.14     0.002000       1.1485    4.4852    0.1916
 -160.70   84.58   80.63     0.002000       1.2571    2.9679    0.2681
 -161.12   82.03   77.45     0.002000       1.1241    5.4838    0.1594
 -162.13   93.62   80.67     0.002000       1.0026    7.8253    0.1244
 -160.50   85.15   81.67     0.002000       1.2471    2.9247    0.2746
 -162.14   88.18   91.25     0.002000       1.0001    8.9137    0.1086
 -161.91   89.86   90.08     0.002000       1.3795    3.3019    0.2193
 -162.20   88.74   86.16     0.002000       1.3381    3.4672    0.2150
 -162.74   97.87   90.45     0.002000       0.7231    4.1606    0.3316
 -162.16   89.07   85.13     0.002000       1.4334    3.3733    0.2060
 -159.38   89.63   90.23     0.002000       0.9985    3.9363    0.2570
 -161.57   95.35  103.89     0.002000       1.3797    3.2474    0.2216
 -163.02   90.54   94.95     0.002000       1.4123    3.3621    0.2092
 -161.69   92.33  112.38     0.002000       1.5484    4.1966    0.1517
 -161.44   86.55   69.80     0.002000       1.3730    4.3349    0.1657
 -161.01  106.09   96.35     0.002000       1.0714    5.1889    0.1774
 -162.33   90.98   90.95     0.002000       0.8505    4.1949    0.2798
 -161.63   88.43   87.33     0.002000       1.3458    3.3452    0.2221
 -162.60   88.63   90.28     0.002000       0.6728    3.7556    0.3956
 -161.91   89.16   83.97     0.002000       1.3920    3.7150    0.1927
 -160.06   90.55   89.93     0.002000       1.3123    3.0224    0.2531
 -161.72   92.62  102.47     0.002000       1.0596    6.8375    0.1350
 -164.16   94.11   93.47     0.002000       1.1252    3.1769    0.2783
 -162.15   89.89   90.51     0.002000       1.4711    3.2271    0.2101
 -162.60  113.43   82.38     0.002000       1.0512    4.8745    0.1936
 -162.09   91.69   81.97     0.002000       1.0012    8.1059    0.1200
 -161.89   89.00   84.96     0.002000       1.4459    3.3082    0.2087
 -162.32   88.11  117.57     0.002000       1.6499    4.4876    0.1326
 -160.99   92.88   93.44     0.002000       1.3849    2.8635    0.2523
 -163.42   79.73   82.98     0.002000       1.3304    2.6705    0.2807
 -161.20   90.75   92.31     0.002000       1.3571    3.4655    0.2128
 -162.65   91.29   92.98     0.002000       1.2975    3.4890    0.2199
 -161.35   90.87   91.30     0.002000       1.1333    2.7974    0.3157
 -162.10   97.73   88.69     0.002000       1.0141    8.1452    0.1176
 -161.10  106.84   95.26     0.002000       1.0665    5.3565    0.1725
 -161.19   94.81  100.45     0.002000       1.2915    3.0020    0.2575
 -161.61   86.10   85.95     0.002000       0.8879    4.2263    0.2665
 -161.85   89.72  104.05     0.002000       1.0611    7.0229    0.1314
 -160.04   93.71   88.93     0.002000       0.7788    4.0630    0.3183
 -161.98   91.03   95.44     0.002000       1.3510    3.4138    0.2164
 -161.97   88.11   83.96     0.002000       1.4827    3.3640    0.1996
 -162.14   79.55   94.91     0.002000       1.0249    7.3061    0.1308
 -161.42   83.20   85.07     0.002000       0.8126    4.1587    0.2960
 -161.77   62.16   92.74     0.002000       0.9606    4.4816    0.2310
 -161.78   91.63  101.23     0.002000       1.0208    7.6590    0.1249
 -166.76   93.40   89.92     0.002000       1.0517    2.3897    0.3975
 -161.99   91.40   62.86     0.002000       1.7529    4.4316    0.1265
 -160.86   94.98   92.69     0.002000       0.9498    3.7561    0.2815
 -161.61   87.28   78.21     0.002000       1.0380    7.3726    0.1276
 -161.37   77.61   82.69     0.002000       0.9534    3.8324    0.2720
 -161.84   85.34   79.81     0.002000       1.3261    3.0460    0.2463
 -162.54   94.07   62.25     0.002000       1.8227    4.5073    0.1196
 -161.27   94.98   92.87     0.002000       0.9804    3.8875    0.2630
 -162.49   89.59  100.70     0.002000       1.6725    3.6203    0.1635
 -157.30   91.29   90.08     0.002000       0.9744    3.6404    0.2859
 -162.16   82.88   94.00     0.002000       1.0066    7.9277    0.1222
 -160.23   91.84   91.26     0.002000       1.0484    3.5732    0.2688
 -160.25   92.58   91.95     0.002000       1.2974    3.1279    0.2473
 -161.55  121.90   89.11     0.002000       0.7610    4.1065    0.3195
 -160.97   87.84   87.60     0.002000       1.1830    2.7706    0.3055
 -161.53  102.51   93.95     0.002000       1.0679    6.5684    0.1395
 -162.06   89.73   86.90     0.002000       1.4535    3.2452    0.2115
 -162.77   89.25   89.42     0.002000       1.4173    3.3864    0.2072
 -162.17   88.90   80.60     0.002000       1.5028    3.5962    0.1839
 -160.50   85.15   82.26     0.002000       1.3355    2.9905    0.2507
 -162.55   90.85   96.74     0.002000       1.5230    3.5954    0.1812
 -162.01   91.23   77.81     0.002000       1.0103    7.2379    0.1337
 -159.11   89.45   90.26     0.002000       1.1867    2.6767    0.3167
 -163.12   92.77   94.16     0.002000       1.2682    3.5621    0.2198
 -162.12   86.47   94.35     0.002000       1.0008    8.6827    0.1119
 -162.35   91.00   93.61     0.002000       1.3806    3.3967    0.2125
 -162.34   98.96   80.75     0.002000       1.0311    7.1502    0.1329
 -162.94   79.13  108.50     0.002000       1.4032    5.0750    0.1387
 -161.27  107.66   95.15     0.002000       0.8855    4.2486    0.2640
 -162.06   99.78   88.68     0.002000       1.0255    7.5698    0.1255
 -161.80   91.28  110.71     0.002000       1.7757    3.6779    0.1513
 -161.75   92.39   92.68     0.002000       0.9402    4.1729    0.2548
 -161.68   79.45   86.99     0.002000       1.0383    7.1416    0.1317
 -162.01   88.71   78.66     0.002000       1.6261    3.5493    0.1720
 -161.35   75.86   86.08     0.002000       1.0589    6.2704    0.1478
 -162.49   89.15   81.62     0.002000       1.5210    3.5863    0.1819
 -161.89  122.49   87.27     0.002000       0.7720    4.3395    0.2980
 -161.57   91.60  112.73     0.002000       1.5336    4.4255    0.1452
 -161.47   85.86   76.45     0.002000       1.0960    6.2133    0.1439
 -161.79   90.07  105.43     0.002000       1.1142    6.6319    0.1326
 -162.50   55.87   94.85     0.002000       0.7841    4.0691    0.3135
 -160.07   91.37   89.48     0.002000       1.1420    2.5168    0.3493
 -160.23   90.26   92.49     0.002000       1.3076    3.0126    0.2547
 -161.50   58.68   93.32     0.002000       0.9029    4.3533    0.2538
 -162.17   94.11   70.30     0.002000       1.2434    6.3491    0.1243
 -163.38   88.39   87.08     0.002000       1.1824    3.3959    0.2478
 -162.14   94.97   84.08     0.002000       1.0023    8.4965    0.1142
 -162.05   89.12   88.24     0.002000       1.3568    3.4206    0.2151
 -163.07   95.12   90.87     0.002000       0.8454    3.9389    0.2993
 -162.61   86.55  116.91     0.002000       1.9016    4.0235    0.1286
 -161.17   86.71   88.46     0.002000       1.1544    2.7381    0.3167
 -161.38   86.92   73.13     0.002000       1.1886    5.4732    0.1511
 -161.77   69.03   90.95     0.002000       1.0263    5.2216    0.1844
 -162.13   91.41  111.48     0.002000       1.7895    3.7060    0.1487
 -162.12   64.01   92.70     0.002000       0.9594    4.7333    0.2184
 -160.92   72.50   89.36     0.002000       0.6062    3.9946    0.4138
 -161.63   79.03   86.36     0.002000       1.0445    7.0161    0.1332
 -161.20  103.39   97.45     0.002000       1.0982    5.3468    0.1675
 -160.09   89.42   88.85     0.002000       1.2962    2.8404    0.2726
 -161.27   98.61   99.96     0.002000       1.1031    6.1558    0.1443
 -161.69   75.38   85.98     0.002000       0.7716    3.8444    0.3361
 -160.50   90.12   85.35     0.002000       1.1836    2.6256    0.3227
 -161.66   86.97   72.33     0.002000       1.6548    3.4243    0.1749
 -161.31   75.07   82.68     0.002000       0.9239    4.0558    0.2649
 -162.99  106.82   91.77     0.002000       0.6482    3.9061    0.3934
 -158.09   88.82   88.59     0.002000       0.9045    3.4577    0.3234
 -159.70   87.34   85.84     0.002000       1.2108    2.7892    0.2976
 -162.29   98.60   83.52     0.002000       1.0156    7.4825    0.1286
 -162.24   87.68   83.02     0.002000       1.3606    3.5905    0.2038
 -160.17   88.92   88.14     0.002000       1.3122    3.1385    0.2438
 -162.29   99.88   83.24     0.002000       1.0245    7.2545    0.1317
 -162.36   89.09   74.13     0.002000       1.7726    3.5474    0.1572
 -163.78   88.24   90.22     0.002000       1.2633    3.4676    0.2263
 -161.95   89.56   84.67     0.002000       1.3851    3.7550    0.1916
 -162.05   88.13  116.77     0.002000       1.7488    4.6573    0.1207
 -162.07   91.51   92.44     0.002000       1.0001    9.1987    0.1052
 -161.70  112.79   91.15     0.002000       0.9726    4.9021    0.2075
 -163.96   98.23   95.17     0.002000       1.1616    2.9213    0.2937
 -161.91   91.39  106.55     0.002000       1.7810    3.5288    0.1574
 -162.53   98.47   73.42     0.002000       1.2225    6.4474    0.1247
 -161.86   88.34   81.54     0.002000       1.4686    3.5251    0.1924
 -160.75   97.66   94.62     0.002000       0.8982    3.8438    0.2907
 -161.26   84.63   72.46     0.002000       1.3215    3.8259    0.1957
 -160.70   85.38   83.04     0.002000       1.4371    3.0035    0.2317
 -161.96   79.29   90.92     0.002000       1.0244    7.2824    0.1310
 -160.88   86.29   85.67     0.002000       1.5016    3.0519    0.2181
 -162.39   88.78   76.35     0.002000       1.7049    3.5116    0.1653
 -162.40   93.03   91.02     0.002000       0.6349    3.9863    0.3949
 -162.19   94.69   71.59     0.002000       1.2040    6.5048    0.1254
 -161.92  109.38   88.46     0.002000       1.0450    5.5313    0.1705
 -161.99   89.22   86.23     0.002000       1.5011    3.3516    0.1981
 -161.97   87.37   85.95     0.002000       1.0007    8.8021    0.1101
 -160.78   68.21   85.16     0.002000       0.8245    4.2127    0.2866
 -161.20   96.99  104.08     0.002000       1.1758    4.7926    0.1749
 -162.56  121.14   82.51     0.002000       0.9509    4.0632    0.2584
 -160.52   92.58   89.30     0.002000       1.1977    2.6510    0.3158
 -157.18   82.30   82.00     0.002000       0.9026    3.5979    0.3116
 -163.41   91.25   91.31     0.002000       0.9137    3.3296    0.3277
 -161.34   89.22   88.16     0.002000       1.3949    3.2959    0.2174
 -161.43   92.34   94.84     0.002000       1.4309    3.3732    0.2069
 -161.97   94.37   93.49     0.002000       1.0037    8.7471    0.1104
 -161.94   71.03   92.07     0.002000       1.0353    5.5112    0.1730
 -161.82   92.94   99.08     0.002000       1.0139    7.8210    0.1229
 -158.90   83.20   83.76     0.002000       0.9855    3.5904    0.2852
 -164.50   90.73   93.19     0.002000       1.1423    3.0959    0.2812
 -162.66   81.52  106.58     0.002000       1.2190    5.9715    0.1353
 -161.98   91.06   98.14     0.002000       1.0018    8.1089    0.1199
 -161.27   82.86   85.27     0.002000       0.8761    3.9337    0.2906
 -162.46   81.50  102.52     0.002000       1.1042    6.6105    0.1347
 -162.17   88.75   88.73     0.002000       1.4685    3.3082    0.2051
 -161.73   91.55  102.27     0.002000       1.0371    7.4166    0.1271
 -162.87   90.25   82.44     0.002000       1.4855    3.6327    0.1836
 -162.27  124.05   85.91     0.002000       0.8009    4.0661    0.3068
 -160.94  110.95   89.00     0.002000       0.6167    4.0879    0.3977
 -161.94   91.94   93.73     0.002000       1.4014    3.3244    0.2143
 -163.67   92.55   87.89     0.002000       1.4930    3.2992    0.2010
 -159.95   89.96   93.01     0.002000       1.1482    2.5644    0.3411
 -159.96   92.10   93.26     0.002000       1.2552    3.0455    0.2628
 -161.18   92.00   92.71     0.002000       1.3558    3.4225    0.2156
 -162.13   86.95  114.82     0.002000       1.5185    5.6157    0.1150
 -160.96   75.73   80.81     0.002000       1.0064    4.3318    0.2271
 -161.51   93.59   98.27     0.002000       1.5506    3.0859    0.2083
 -161.94   93.37   95.24     0.002000       1.0028    8.6663    0.1116
 -161.90   88.23   83.67     0.002000       1.4108    3.5726    0.1978
 -162.34   90.88   70.30     0.002000       1.8676    3.6877    0.1433
 -161.46   95.22  103.65     0.002000       1.1336    5.5242    0.1568
 -160.95   71.10   84.08     0.002000       1.0143    4.9202    0.1980
 -162.11   88.89   97.12     0.002000       1.0009    8.2721    0.1176
 -162.62   90.62  100.01     0.002000       1.5167    3.5776    0.1828
 -162.66   94.46   92.12     0.002000       0.9602    3.4285    0.3027
 -162.21   83.56   84.86     0.002000       1.0810    3.1194    0.2955
 -161.87   91.52   99.55     0.002000       1.0064    7.9186    0.1224
 -161.83   68.61   92.47     0.002000       1.0295    5.2400    0.1834
 -164.04   95.35   89.50     0.002000       1.4548    2.9842    0.2287
 -161.38   76.53   84.94     0.002000       1.0639    6.0595    0.1522
 -161.58   91.46  108.80     0.002000       1.2755    5.5573    0.1386
 -161.49   88.03   87.19     0.002000       1.6326    3.1605    0.1932
 -160.50   88.02   85.78     0.002000       1.1266    2.5908    0.3437
 -159.98   87.46   84.06     0.002000       1.2094    2.8191    0.2946
 -161.07   83.41   75.28     0.002000       1.1648    5.1023    0.1656
 -162.14   86.23   95.07     0.002000       1.0010    8.5808    0.1132
 -164.08   94.68   93.06     0.002000       1.0937    3.1652    0.2876
 -161.79  110.68   89.76     0.002000       1.0369    5.1166    0.1862
 -159.39   91.57   90.38     0.002000       0.9448    3.6579    0.2921
 -163.47   99.16   82.03     0.002000       1.8815    2.3588    0.2244
 -162.11   92.42   83.04     0.002000       1.0011    8.3513    0.1164
 -163.20   86.47   86.46     0.002000       0.8444    3.5867    0.3288
 -161.98   93.32   92.74     0.002000       1.1591    2.9172    0.2953
 -161.16   80.78   78.77     0.002000       1.1054    3.9113    0.2292
 -162.10   92.38   84.74     0.002000       1.0007    8.6718    0.1120
 -159.81   91.01   88.99     0.002000       1.2864    2.8839    0.2708
 -163.11   88.55   96.99     0.002000       1.5602    3.5382    0.1792
 -163.77   81.26   84.24     0.002000       1.3298    2.7503    0.2723
 -161.06   95.47   96.15     0.002000       1.2636    2.8544    0.2772
 -161.93   91.92   95.56     0.002000       1.6195    3.3344    0.1842
 -163.44   94.19   90.10     0.002000       0.7868    3.8443    0.3296
