MORPHOLOGY AT STRAIN =    1.0000  FOR PHASE  1
   0.996   1.701   0.597  <-- AXES OF PHASE ELLIPSOID
 -155.20   89.56   90.15  <-- EULER ANGLES OF PHASE ELLIPSOID (deg)
   1.010   1.972   0.572  <-- AVERAGE OF GRAIN AXES FOR PHASE
   0.085   0.357   0.336  <-- STANDARD DEV OF AVG GRAIN AXES FOR PHASE
B       500
   10.05   46.78  121.96     0.001000       0.9530    1.8147    0.5837
 -152.02  113.56  103.17     0.001000       1.0022    2.6611    0.3728
 -153.30   93.19  110.42     0.001000       1.0014    2.8980    0.3420
 -156.81   88.91   55.99     0.001000       1.2293    1.3044    0.6304
 -157.94   90.76  116.15     0.001000       1.1617    1.4087    0.6171
 -153.72   86.26   86.88     0.001000       1.0001    3.5314    0.2788
 -148.94   90.49   86.39     0.001000       1.1278    1.2385    0.7271
 -153.06   77.29   81.23     0.001000       1.0009    3.1937    0.3092
 -162.69  105.44   42.96     0.001000       1.0955    1.6485    0.5576
 -156.44   63.10  106.49     0.001000       1.0036    2.6448    0.3762
 -154.21   88.82  104.87     0.001000       1.0007    3.1668    0.3121
 -153.95   95.17   90.69     0.001000       1.0001    3.5225    0.2795
 -156.78   48.15   72.93     0.001000       0.8989    1.3813    0.8144
 -147.17  119.79  126.34     0.001000       1.0427    1.2976    0.7491
   29.21   39.54   77.65     0.001000       0.8786    1.7808    0.6442
 -148.70  113.34   86.14     0.001000       0.9076    1.4641    0.7642
 -153.87   84.43   96.83     0.001000       1.0004    3.4923    0.2822
 -158.02   40.43  -76.77     0.001000       0.9827    1.9244    0.5330
 -156.80   37.36  -82.34     0.001000       0.9461    1.9488    0.5466
 -155.22  109.64   81.88     0.001000       1.0019    3.0660    0.3226
 -148.35   46.00 -113.28     0.001000       0.9432    1.8001    0.5927
 -150.56  106.33  108.37     0.001000       1.0037    2.8004    0.3540
 -154.65   97.33   84.14     0.001000       1.0004    3.4198    0.2880
 -152.53   98.21  109.76     0.001000       1.0020    2.8559    0.3470
 -170.28   90.07   91.01     0.001000       1.0371    1.1876    0.8232
 -141.19   96.79   84.05     0.001000       0.9838    1.1527    0.8996
 -175.01   93.86   94.75     0.001000       1.0048    1.0924    0.9253
 -153.02   89.50 -135.10     0.001000       1.0732    1.8899    0.4959
 -146.39   82.97   84.95     0.001000       0.9606    1.4264    0.7412
 -159.04   87.44  133.80     0.001000       1.0212    2.0711    0.4733
  179.91   95.77  100.65     0.001000       1.0109    1.0783    0.9328
 -149.23   75.07   58.19     0.001000       1.0234    2.2157    0.4419
 -152.57   83.15 -136.86     0.001000       1.0679    1.7528    0.5381
 -148.16   79.82   82.68     0.001000       0.8750    1.4395    0.8067
 -156.27   81.37  123.57     0.001000       1.0137    2.3235    0.4245
 -145.55   58.76   50.39     0.001000       1.0339    1.5953    0.6125
 -150.62  105.70  112.98     0.001000       1.0067    2.5463    0.3890
 -151.27  134.75   94.03     0.001000       0.9708    2.2831    0.4524
 -166.00   64.39   93.30     0.001000       0.8962    1.4035    0.8038
 -150.59   72.19   80.19     0.001000       1.0376    1.1734    0.8340
 -157.01   51.50   88.73     0.001000       0.9931    2.4788    0.4044
 -156.29   77.48   90.32     0.001000       1.0023    1.0858    0.9347
 -153.17   92.39  131.30     0.001000       1.1912    1.4134    0.6006
 -159.51  112.65   59.50     0.001000       1.0073    2.3239    0.4277
 -154.37   92.72  140.14     0.001000       1.1142    1.6662    0.5428
 -147.95   84.04   98.64     0.001000       1.0255    1.1562    0.8576
 -158.27  124.11   75.33     0.001000       1.0038    2.4651    0.4037
 -163.24   94.24  102.54     0.001000       1.0909    1.3309    0.6962
 -156.15   97.21   52.17     0.001000       1.0225    2.2137    0.4423
 -156.60  107.54   66.44     0.001000       1.0032    2.7020    0.3677
 -155.41  102.34   77.51     0.001000       1.0013    3.1639    0.3122
 -177.53   89.72   92.62     0.001000       1.0140    1.1760    0.8495
 -151.76  130.33  118.55     0.001000       0.9717    1.3417    0.7757
 -153.30   84.68   75.30     0.001000       1.0008    3.1382    0.3150
 -155.48   40.49  -88.55     0.001000       0.9350    2.0646    0.5204
 -158.08   34.66  -77.97     0.001000       0.9465    1.7807    0.5996
   27.86   32.13   90.95     0.001000       0.8791    1.8484    0.6215
 -150.78   83.27   57.30     0.001000       1.0151    2.3898    0.4126
 -154.42   92.21   87.13     0.001000       1.0001    3.5196    0.2795
 -172.30  106.38   85.73     0.001000       0.9187    1.2726    0.8660
 -154.21   90.48   97.37     0.001000       1.0002    3.4261    0.2876
 -153.34   90.44  139.05     0.001000       1.2246    1.3661    0.6042
   24.51   38.77   92.39     0.001000       0.8478    1.7380    0.6856
 -155.74   87.20   81.44     0.001000       1.0002    3.4292    0.2861
 -171.12   99.65   98.33     0.001000       1.0997    1.1588    0.7952
 -153.53   90.22  137.53     0.001000       1.1500    1.6290    0.5383
 -151.98  100.12  110.98     0.001000       1.0030    2.7627    0.3589
 -150.18  130.87  114.19     0.001000       0.9697    1.8043    0.5743
 -150.85  115.32  101.46     0.001000       1.0026    2.7328    0.3634
   25.80   40.85   76.62     0.001000       0.8849    1.5584    0.7319
 -150.21   80.72   87.79     0.001000       1.0221    1.1810    0.8416
 -151.49   93.18  123.62     0.001000       1.1697    1.3185    0.6574
 -154.13   80.55   98.08     0.001000       1.0008    3.3710    0.2928
 -161.01  105.89   85.06     0.001000       0.8514    1.5145    0.7842
 -154.37  102.72   94.52     0.001000       1.0007    3.3338    0.2953
 -154.50   85.56   96.61     0.001000       1.0003    3.4380    0.2865
 -153.31   90.71  115.93     0.001000       1.0028    2.6696    0.3721
 -153.34   90.10  122.63     0.001000       1.0097    2.3813    0.4158
 -161.63   80.60  132.33     0.001000       1.1659    1.4850    0.5820
 -151.45   99.11  113.10     0.001000       1.0040    2.7008    0.3674
 -151.97   92.36  135.97     0.001000       1.1356    1.6268    0.5463
 -153.42   77.27   89.72     0.001000       1.0009    3.4131    0.2889
 -154.81   79.42  105.64     0.001000       1.0014    3.0754    0.3220
 -174.00   75.33  150.29     0.001000       1.0655    1.2827    0.7407
 -154.28   87.47   88.92     0.001000       1.0000    3.5189    0.2797
 -154.57   89.67  131.87     0.001000       1.1833    1.4982    0.5694
 -151.81   92.44  107.37     0.001000       1.2020    1.2607    0.6689
 -164.11  103.09   87.60     0.001000       0.8730    1.4294    0.8101
 -147.05  110.44  134.53     0.001000       1.0674    1.4936    0.6349
 -145.02   81.33   66.19     0.001000       1.0970    1.1831    0.7842
 -153.93   94.58  111.91     0.001000       1.0018    2.7736    0.3572
 -155.49   76.22  101.45     0.001000       1.0014    3.1951    0.3091
 -143.95   83.37   86.08     0.001000       0.9517    1.3829    0.7725
 -148.50  118.79  112.92     0.001000       1.0040    2.2136    0.4505
 -174.54   91.84   97.34     0.001000       1.0325    1.1664    0.8418
 -151.43   78.96   70.18     0.001000       1.0026    2.8232    0.3513
 -159.86  110.63   65.38     0.001000       1.0027    2.5085    0.3961
 -154.05   53.31   93.60     0.001000       0.8578    1.6023    0.7368
   19.86   34.41  108.54     0.001000       0.9319    1.6061    0.6771
 -149.39   95.09  103.33     0.001000       1.1368    1.2155    0.7355
 -150.57   32.08  -92.35     0.001000       0.8198    1.7119    0.7205
 -150.65   90.37  103.10     0.001000       1.1756    1.2700    0.6792
 -160.17   77.39  133.81     0.001000       1.0774    1.8145    0.5142
 -154.05   91.83   57.14     0.001000       1.0074    2.4260    0.4087
 -170.25   90.23   91.92     0.001000       0.9714    1.1703    0.8921
 -177.47  100.79   99.03     0.001000       1.0309    1.1357    0.8667
 -152.72   74.13   85.49     0.001000       1.0013    3.2721    0.3018
 -157.49   99.45   49.15     0.001000       1.0391    2.0734    0.4654
 -149.99  102.11  136.19     0.001000       1.0861    1.5879    0.5860
 -154.75   89.58   62.62     0.001000       1.1573    1.3254    0.6602
 -151.74   83.80   65.54     0.001000       1.0036    2.7864    0.3559
   24.74   38.27   87.70     0.001000       0.8908    1.9372    0.5829
 -162.02   39.62  -68.56     0.001000       0.9559    1.7298    0.6115
   31.56   44.74   65.39     0.001000       0.9257    1.5714    0.6939
 -173.92  125.08   46.19     0.001000       1.0285    1.1672    0.8466
 -160.87  106.69   50.55     0.001000       1.0205    2.0518    0.4790
 -156.79   31.43  -84.41     0.001000       0.8732    1.8105    0.6388
 -157.44  109.60   67.62     0.001000       1.0030    2.7322    0.3633
 -143.64   52.54   49.16     0.001000       0.9860    1.4380    0.7140
 -150.71  115.81  105.27     0.001000       1.0028    2.5633    0.3877
 -153.51   79.40   83.17     0.001000       1.0007    3.3017    0.2987
 -149.52   93.54   93.20     0.001000       1.0975    1.2445    0.7437
 -153.37   47.35   85.75     0.001000       0.9722    2.3676    0.4343
   19.25   38.78  102.22     0.001000       0.9554    1.9854    0.5305
 -152.20   77.74   73.47     0.001000       1.0017    2.9162    0.3396
 -153.04  120.91   89.89     0.001000       1.0032    2.7933    0.3553
 -149.21   87.47   89.50     0.001000       0.9661    1.5003    0.6996
 -152.29   74.51   56.89     0.001000       1.0236    2.2328    0.4372
 -148.13  112.38  129.50     0.001000       1.0369    1.7595    0.5525
 -153.53   89.88  105.20     0.001000       1.0008    3.1878    0.3102
 -147.99   88.34   61.99     0.001000       1.1219    1.2454    0.7275
 -164.10   88.35   82.60     0.001000       0.8691    1.4124    0.8240
 -173.28   84.03   92.48     0.001000       0.9414    1.2108    0.8891
 -159.09  123.35   70.71     0.001000       1.0041    2.3613    0.4220
 -149.36   66.84   54.77     0.001000       1.0214    1.9516    0.5038
 -160.41   41.61  -75.04     0.001000       0.8649    1.6825    0.6955
   12.19   44.86  116.60     0.001000       0.9281    1.8324    0.5934
 -152.34   88.44  100.66     0.001000       1.1998    1.3441    0.6273
 -143.16   84.33   78.45     0.001000       0.9867    1.2931    0.7980
 -149.69  129.81  116.54     0.001000       0.9770    1.7465    0.5894
 -155.28   77.61  106.98     0.001000       1.0017    3.0447    0.3252
 -157.67  111.88   66.24     0.001000       1.0037    2.5713    0.3868
 -151.74   96.24  137.32     0.001000       1.1451    1.4670    0.6020
 -153.45   71.82   89.79     0.001000       1.0015    3.1752    0.3114
 -145.69   74.25   62.81     0.001000       1.0458    1.2257    0.7920
 -157.30   91.47   52.57     0.001000       1.2002    1.4564    0.5770
 -158.16   79.41  133.87     0.001000       1.0909    1.8731    0.4919
 -145.33   79.92   81.08     0.001000       0.9534    1.3631    0.7824
 -150.88   91.61   90.74     0.001000       1.0099    1.1654    0.8634
 -148.41  103.01   93.32     0.001000       0.8514    1.4410    0.8278
 -147.77   69.99   52.78     0.001000       1.0453    1.9234    0.5005
 -170.85   75.25  147.44     0.001000       1.0737    1.3526    0.6964
 -150.06   37.34  -97.25     0.001000       0.8403    1.8479    0.6496
 -163.04  130.36   88.01     0.001000       0.8647    1.5731    0.7418
 -147.71   37.13  -95.41     0.001000       0.8302    1.5008    0.8140
 -155.35   99.73   69.43     0.001000       1.0017    2.9023    0.3416
 -151.17   56.89   84.27     0.001000       1.0023    2.6013    0.3828
 -151.63  104.00  103.90     0.001000       1.0018    3.0435    0.3253
 -156.47   92.00   47.87     0.001000       1.2453    1.3009    0.6240
 -152.21   92.82   80.36     0.001000       1.1889    1.2923    0.6593
 -146.72  121.40  126.18     0.001000       1.0188    1.7216    0.5751
 -160.30   68.94  121.39     0.001000       1.0077    2.3286    0.4264
 -156.19   64.11   84.69     0.001000       0.8278    1.6026    0.7614
 -151.10   55.13   70.50     0.001000       0.9963    2.2367    0.4484
 -151.58   32.96  -87.04     0.001000       0.8784    1.7143    0.6721
   28.27   42.78   74.06     0.001000       0.8985    1.6899    0.6634
 -154.49   93.37   68.06     0.001000       1.0015    2.8965    0.3421
 -153.83   83.05   94.32     0.001000       1.0004    3.5220    0.2797
 -142.08   84.25   79.60     0.001000       0.9924    1.2304    0.8346
 -171.30   55.96  133.23     0.001000       1.0300    1.5335    0.6399
 -157.94   88.22  117.65     0.001000       1.1507    1.4121    0.6217
 -154.65   85.25  104.80     0.001000       1.0008    3.1674    0.3120
 -152.29   97.55  105.63     0.001000       1.0012    3.1088    0.3184
 -155.06   91.48   89.33     0.001000       0.9046    1.6060    0.6958
 -154.05   54.49   94.58     0.001000       1.0035    2.6094    0.3814
 -157.79   92.11  110.58     0.001000       1.1916    1.3118    0.6468
 -154.39   91.75   45.03     0.001000       1.1770    1.4982    0.5727
 -147.47   66.38   50.14     0.001000       1.0388    1.7664    0.5495
 -159.79   54.63   91.24     0.001000       0.8572    1.6205    0.7268
 -170.63   51.70  129.26     0.001000       0.9739    1.3908    0.7489
 -155.88   88.81   53.28     0.001000       1.0073    2.3609    0.4194
 -143.09   98.84  107.03     0.001000       1.0022    1.0974    0.9265
 -152.14   44.79 -108.60     0.001000       0.9313    1.7382    0.6213
   21.44   37.89   96.80     0.001000       0.9182    2.1133    0.5179
 -174.60  116.96   38.75     0.001000       1.0161    1.5291    0.6501
 -159.12   72.80  124.39     0.001000       1.0157    2.1792    0.4527
 -154.20   92.42  145.00     0.001000       1.1554    1.4700    0.5949
 -165.68  128.53  106.27     0.001000       0.9398    1.1969    0.9017
 -149.12   85.70   84.49     0.001000       1.0864    1.2144    0.7703
 -160.00   86.99  112.79     0.001000       1.1398    1.3221    0.6713
 -146.01  129.81  125.33     0.001000       0.9853    1.5307    0.6701
 -156.55   82.86  131.38     0.001000       1.0613    1.9908    0.4750
 -158.97   65.25  115.71     0.001000       1.0052    2.3439    0.4247
 -142.95   86.67   84.52     0.001000       0.9907    1.3226    0.7766
 -167.97   92.93   87.31     0.001000       1.0182    1.3190    0.7526
   23.30   38.50   94.09     0.001000       0.8262    1.7979    0.6799
 -153.95   91.72   74.99     0.001000       1.0008    3.1976    0.3091
 -153.67   97.12   94.85     0.001000       1.0003    3.4324    0.2871
 -153.44  114.05   93.52     0.001000       1.0021    2.9308    0.3377
 -154.16  130.86   88.93     0.001000       0.9978    2.3627    0.4243
 -155.87  108.32   78.72     0.001000       1.0019    3.0499    0.3242
 -147.05  110.92  127.12     0.001000       1.0517    1.7721    0.5407
 -144.39  106.55  110.67     0.001000       1.0683    1.1349    0.8392
 -145.49   97.83   99.18     0.001000       0.9733    1.3520    0.7727
 -156.45   91.90  119.19     0.001000       1.1681    1.4026    0.6167
 -170.04   75.65   80.05     0.001000       0.9163    1.2512    0.8840
 -155.19   98.60   66.22     0.001000       1.0022    2.7881    0.3560
 -151.65   33.99  -88.39     0.001000       0.8942    1.8906    0.5973
 -154.04   73.39   91.04     0.001000       1.0012    3.2053    0.3082
 -161.85   55.17  115.90     0.001000       1.0048    2.0717    0.4826
 -164.76  128.82   66.29     0.001000       0.9974    2.0951    0.4798
 -151.21  107.86  107.44     0.001000       1.0030    2.7097    0.3661
 -154.84   81.11  107.19     0.001000       1.0014    3.0270    0.3272
 -144.71   95.57   78.57     0.001000       1.0099    1.1235    0.8975
 -154.07   92.68   94.62     0.001000       1.0001    3.5459    0.2774
 -142.38   96.41   98.60     0.001000       0.9934    1.2319    0.8327
 -146.79  105.24  122.84     0.001000       1.1004    1.2100    0.7631
 -152.62   80.60   74.38     0.001000       1.0013    3.0338    0.3261
 -146.97   83.98   66.10     0.001000       1.1221    1.1978    0.7564
 -143.25  115.15  131.62     0.001000       1.0492    1.2919    0.7490
 -155.04  110.80   85.48     0.001000       1.0019    3.1487    0.3136
 -147.64   93.15   81.31     0.001000       1.0804    1.1861    0.7938
 -147.03   95.12  119.31     0.001000       1.1086    1.2658    0.7236
 -156.56   76.94  120.59     0.001000       1.0091    2.4380    0.4064
 -167.34   96.17   75.02     0.001000       1.1124    1.2044    0.7559
 -158.43   88.46  101.34     0.001000       1.1628    1.4480    0.5992
 -156.51   84.93  133.38     0.001000       1.1706    1.6111    0.5341
 -153.63   87.74   50.19     0.001000       1.1996    1.3906    0.6061
 -152.26  116.25   97.16     0.001000       1.0024    2.7736    0.3576
 -154.85   92.92   90.24     0.001000       0.9983    1.1449    0.8889
 -142.85   86.43   76.08     0.001000       0.9941    1.1828    0.8662
 -152.78   86.87   55.31     0.001000       1.1920    1.3292    0.6391
 -153.86   89.50   81.05     0.001000       1.0003    3.4124    0.2889
 -161.71   74.20  134.60     0.001000       1.0898    1.7153    0.5386
 -152.30   83.21   67.38     0.001000       1.0024    2.7747    0.3575
 -147.46   82.30   97.92     0.001000       1.0396    1.1522    0.8492
 -154.85   93.35   54.71     0.001000       1.1731    1.3763    0.6266
 -155.09   90.13   86.70     0.001000       0.8399    1.6202    0.7428
 -158.42   64.22   89.45     0.001000       0.8384    1.5889    0.7582
 -173.42  109.75   84.81     0.001000       0.9224    1.2635    0.8689
 -143.29   86.13   74.15     0.001000       1.0407    1.1496    0.8515
 -147.79   54.55   72.85     0.001000       0.9941    2.2802    0.4420
 -151.54   98.14  115.38     0.001000       1.0059    2.6900    0.3682
 -154.81   80.98  101.77     0.001000       1.0009    3.2153    0.3073
 -155.06   91.74   69.18     0.001000       1.2057    1.4188    0.5904
 -175.46   52.69  137.21     0.001000       1.0070    1.3579    0.7414
 -161.49   82.29   86.25     0.001000       0.8722    1.4653    0.7907
 -156.80  117.72   73.64     0.001000       1.0036    2.6805    0.3708
 -149.09   37.86  -95.83     0.001000       0.8941    2.0049    0.5621
 -148.63   59.89   99.79     0.001000       0.9004    1.2926    0.8752
 -152.80   87.99   95.19     0.001000       0.8558    1.5985    0.7401
 -175.89   78.47   97.26     0.001000       1.0645    1.1730    0.8108
   22.39   34.43  101.21     0.001000       0.9507    1.8351    0.5787
 -159.39  100.90 -136.62     0.001000       1.1246    1.6952    0.5280
 -150.37   77.33   52.91     0.001000       1.0401    2.1340    0.4518
 -154.04   85.53  116.29     0.001000       1.0034    2.7409    0.3621
 -155.96   59.34   99.96     0.001000       1.0033    2.6121    0.3806
 -149.65  104.39   98.44     0.001000       1.0473    1.1838    0.8190
 -149.64  106.36  119.89     0.001000       1.0238    2.3202    0.4212
  179.90  102.13   60.45     0.001000       1.0411    1.1201    0.8700
   24.61   40.85   84.12     0.001000       0.8539    1.7557    0.6720
 -146.08   99.94   94.95     0.001000       0.9494    1.4292    0.7485
 -154.76   84.59  117.37     0.001000       1.0037    2.6103    0.3804
 -154.67   83.50  121.08     0.001000       1.0092    2.4846    0.3985
 -152.74   66.70   87.95     0.001000       1.0021    2.9951    0.3308
 -154.34   87.88   52.37     0.001000       1.0166    2.1778    0.4519
 -153.83   89.31  110.96     0.001000       1.0014    2.8984    0.3421
 -154.07   75.58   93.65     0.001000       1.0011    3.2861    0.3005
 -148.39  102.30   80.64     0.001000       1.0003    1.0922    0.9323
  178.21   74.28  147.43     0.001000       1.0447    1.1351    0.8564
 -171.55   80.13  150.26     0.001000       1.0773    1.3387    0.7010
 -149.89   73.11   68.09     0.001000       1.0050    2.5996    0.3818
 -157.69   42.22  -90.69     0.001000       0.8568    1.8577    0.6323
 -145.39   77.37   90.46     0.001000       0.9373    1.3986    0.7753
 -157.82   40.52  -78.28     0.001000       0.9705    2.0455    0.5071
 -153.25   99.60  129.75     0.001000       1.0361    2.0768    0.4657
 -150.11   49.35   83.28     0.001000       0.9870    2.3410    0.4336
 -149.18   84.11   47.11     0.001000       1.1295    1.4254    0.6289
 -155.19   98.53   69.33     0.001000       1.0017    2.9100    0.3406
   27.53   42.78   75.82     0.001000       0.9186    1.8551    0.5897
 -157.43   45.40   90.22     0.001000       0.9594    2.3049    0.4519
 -155.34   89.46  133.49     0.001000       1.1933    1.5060    0.5613
 -153.62   57.93   89.76     0.001000       1.0028    2.6537    0.3744
 -156.08   31.04  -86.34     0.001000       0.8447    1.7882    0.6687
 -153.67   76.62   86.45     0.001000       1.0008    3.2885    0.3000
 -156.09   39.90  -84.35     0.001000       0.8651    1.7782    0.6566
   30.87   42.98   75.44     0.001000       0.9273    1.9393    0.5593
 -159.30   88.87  112.10     0.001000       1.1282    1.3494    0.6643
 -155.91   87.88  130.13     0.001000       1.2436    1.4096    0.5756
 -153.73   87.45   76.49     0.001000       1.0006    3.2193    0.3068
 -160.55   60.04  114.86     0.001000       1.0043    2.2344    0.4466
 -150.02   77.81   58.96     0.001000       1.0179    2.3059    0.4264
 -153.02   48.69   85.52     0.001000       0.8096    1.6974    0.7350
 -167.30  118.55   56.46     0.001000       1.0040    2.1632    0.4608
 -155.39   87.72   78.02     0.001000       1.0004    3.3303    0.2952
 -158.10   91.00 -140.77     0.001000       1.0589    1.8659    0.5083
 -158.60   92.70   66.72     0.001000       1.2096    1.4214    0.5867
   18.74   35.42  100.89     0.001000       0.8410    1.7143    0.7012
 -151.97   74.83   77.80     0.001000       1.0015    3.0098    0.3290
 -148.58   56.61   69.65     0.001000       0.9988    2.1805    0.4598
 -143.21   58.64   45.06     0.001000       1.0207    1.3874    0.7158
 -150.35   66.09   73.65     0.001000       1.0028    2.6013    0.3820
 -153.83   88.88   70.60     0.001000       1.0012    2.9844    0.3316
 -143.04   62.66   44.67     0.001000       1.0448    1.2969    0.7492
 -154.39   88.39   94.21     0.001000       1.0001    3.4975    0.2814
 -161.98   88.07   90.18     0.001000       1.0989    1.2618    0.7304
 -173.92   95.50   80.84     0.001000       1.0517    1.1558    0.8342
 -157.68  111.91   91.92     0.001000       0.8188    1.6446    0.7495
 -155.29   91.07 -135.67     0.001000       1.1951    1.3905    0.6083
 -151.98   88.85   91.51     0.001000       0.9437    1.5657    0.6852
 -145.32  125.30  123.83     0.001000       1.0021    1.6925    0.5946
 -174.59   74.23  146.29     0.001000       1.0876    1.1830    0.7879
 -150.31  108.18  124.64     0.001000       1.0398    2.0746    0.4649
 -147.57   67.92   58.84     0.001000       1.0202    2.0876    0.4712
 -151.52  121.21   95.97     0.001000       1.0028    2.6939    0.3689
 -157.30  107.33   90.59     0.001000       0.8184    1.6636    0.7413
 -153.02   86.92   60.84     0.001000       1.1765    1.2841    0.6710
   28.96   36.69   84.07     0.001000       0.8630    1.9141    0.6101
 -159.93   92.34   83.12     0.001000       1.0855    1.4622    0.6359
 -149.50   91.17   77.12     0.001000       1.1346    1.2372    0.7234
 -152.21  101.32  108.42     0.001000       1.0022    2.8436    0.3484
 -141.76   95.83  100.18     0.001000       0.9950    1.1957    0.8567
 -158.64   92.80  113.48     0.001000       1.1966    1.2939    0.6530
 -159.97  121.93   68.63     0.001000       1.0043    2.4616    0.4043
 -153.86   86.67   74.82     0.001000       1.0008    3.1315    0.3154
 -157.11   87.86   64.15     0.001000       1.1769    1.3537    0.6345
 -154.39   94.08  126.64     0.001000       1.0165    2.1660    0.4543
 -148.38   96.79  114.87     0.001000       1.1209    1.2485    0.7254
 -140.68   85.40   86.31     0.001000       0.9980    1.1690    0.8744
 -151.28   89.43   95.58     0.001000       1.1694    1.2935    0.6700
  178.82   81.78   97.24     0.001000       1.0329    1.0923    0.9006
 -170.91   95.38   93.47     0.001000       0.9520    1.2252    0.8685
 -154.87   98.00   80.55     0.001000       1.0007    3.3405    0.2950
 -152.55  120.55   93.21     0.001000       1.0029    2.7893    0.3557
 -145.19  119.79  128.26     0.001000       1.0339    1.4283    0.6853
   23.41   38.52   92.35     0.001000       0.8041    1.7866    0.7025
 -153.52   98.38  112.92     0.001000       1.0033    2.7919    0.3541
 -155.08  124.47   87.26     0.001000       0.8314    1.6914    0.7187
 -154.91   89.89  119.56     0.001000       1.1524    1.3862    0.6333
 -153.77   88.95 -138.87     0.001000       1.1722    1.4392    0.5993
 -154.81   78.28  106.42     0.001000       1.0016    3.0469    0.3251
   23.84   32.98   92.74     0.001000       0.8491    1.8719    0.6344
 -156.67   52.41  101.29     0.001000       1.0036    2.3463    0.4252
 -152.88   98.09  106.97     0.001000       1.0014    3.0541    0.3238
 -143.10   90.29   84.28     0.001000       0.9929    1.3229    0.7746
 -152.00   86.17   54.12     0.001000       1.0169    2.2522    0.4374
 -153.58   51.43   91.89     0.001000       0.8262    1.6490    0.7429
 -152.55   78.62   73.48     0.001000       1.0018    3.0185    0.3275
 -147.92   43.98 -105.86     0.001000       0.9330    1.9534    0.5519
 -147.86   50.86   58.12     0.001000       0.9749    1.4972    0.6915
 -157.68  103.47   57.27     0.001000       1.0075    2.4501    0.4046
 -154.39   88.24   89.76     0.001000       0.8130    1.6431    0.7569
 -156.60   81.36  132.52     0.001000       1.0811    1.9509    0.4763
 -146.35   95.12   89.02     0.001000       0.9440    1.4732    0.7299
 -154.73   83.52  103.69     0.001000       1.0009    3.1820    0.3106
 -154.05   67.74   93.83     0.001000       0.8369    1.5089    0.8027
 -148.88   92.62  103.36     0.001000       1.1504    1.2352    0.7147
   25.17   44.32   94.45     0.001000       0.9893    2.2068    0.4596
 -165.49   71.61   85.15     0.001000       0.9701    1.1634    0.8986
 -153.57  110.89   89.10     0.001000       1.0019    3.1674    0.3120
 -155.81   89.60   56.67     0.001000       1.2302    1.3160    0.6243
 -169.13   80.61   80.26     0.001000       1.0381    1.2281    0.7944
 -153.91   91.41 -138.02     0.001000       1.1418    1.6604    0.5317
 -145.05   69.34   44.07     0.001000       1.0738    1.3553    0.6972
 -161.84   77.66  135.15     0.001000       1.1281    1.5776    0.5659
 -153.55   84.74   68.13     0.001000       1.0018    2.7955    0.3544
 -143.94   87.12   92.81     0.001000       1.0335    1.1334    0.8705
 -172.74   93.18  104.11     0.001000       1.0098    1.0764    0.9351
 -153.73   88.06  100.92     0.001000       1.0005    3.3772    0.2922
 -172.37   81.73  121.12     0.001000       1.1174    1.1397    0.7958
 -155.33   97.45   66.63     0.001000       1.0019    2.8124    0.3526
 -161.41   63.84  121.04     0.001000       1.0079    2.1275    0.4679
   24.89   41.90   85.83     0.001000       0.9246    2.1530    0.5034
 -155.16  101.46   79.30     0.001000       1.0011    3.2261    0.3060
 -150.03  100.32  129.23     0.001000       1.0569    1.9354    0.4915
 -155.43   63.27   90.30     0.001000       0.7993    1.7091    0.7391
 -153.97   73.56   92.79     0.001000       1.0013    3.2259    0.3063
 -152.51   88.39 -137.16     0.001000       1.1049    1.7522    0.5205
 -153.02   67.06   90.54     0.001000       1.0022    3.0690    0.3226
 -160.52  100.63 -137.16     0.001000       1.1273    1.6384    0.5449
   14.61   43.70  106.89     0.001000       0.9646    2.1711    0.4785
 -149.24  104.99  123.55     0.001000       1.0346    2.1692    0.4469
 -151.10   73.70   70.90     0.001000       1.0031    2.7095    0.3661
 -152.98  100.42  114.14     0.001000       1.0056    2.7023    0.3655
 -159.83   44.53  -75.82     0.001000       0.9892    2.0496    0.4958
 -175.35  113.58   82.39     0.001000       0.9855    1.0849    0.9514
 -149.24   86.78  112.04     0.001000       1.1250    1.2603    0.7161
 -156.47   48.73  101.36     0.001000       1.0019    2.3048    0.4343
 -153.45   89.79   59.38     0.001000       1.0049    2.5097    0.3956
 -158.59   92.24   60.97     0.001000       1.0059    1.0555    0.9597
 -154.03   91.70   75.29     0.001000       1.0008    3.2710    0.3018
 -169.94   85.86   83.67     0.001000       1.0377    1.1946    0.8178
 -160.56   71.49   89.63     0.001000       0.8555    1.5106    0.7818
 -158.77   75.91  125.20     0.001000       1.0157    2.2005    0.4480
 -172.34   66.14   90.29     0.001000       0.9556    1.1851    0.8949
 -149.44   73.02   64.57     0.001000       1.0088    2.4422    0.4056
 -156.04   60.02   99.36     0.001000       1.0031    2.6652    0.3728
 -152.45  101.44  132.13     0.001000       1.0524    1.9175    0.4980
 -162.08   54.32  105.92     0.001000       1.0013    2.4492    0.4066
 -155.69   37.25  -86.89     0.001000       0.8944    2.0496    0.5490
 -154.64   72.35   92.36     0.001000       1.0014    3.2382    0.3047
 -152.50  118.32   96.53     0.001000       1.0025    2.7104    0.3661
 -148.40   89.59   76.20     0.001000       1.0914    1.2178    0.7649
 -151.24  110.41  101.32     0.001000       1.0022    2.9326    0.3379
 -148.09   40.50 -101.98     0.001000       0.8970    1.9740    0.5686
 -161.92  102.58   80.11     0.001000       0.9783    1.1131    0.9334
 -148.92   77.41   47.45     0.001000       1.0799    1.7489    0.5339
 -149.23   44.96 -103.52     0.001000       0.9452    2.0458    0.5193
   27.27   38.52   83.20     0.001000       0.8854    1.9303    0.5886
 -147.55  102.83   91.98     0.001000       0.9206    1.4697    0.7502
 -143.95   81.81   79.63     0.001000       1.0703    1.1477    0.8293
 -155.37   97.05   70.98     0.001000       1.0013    2.9867    0.3313
 -162.53   95.90   60.13     0.001000       1.1507    1.3777    0.6368
 -149.93   89.98   94.15     0.001000       1.1512    1.2394    0.7114
 -155.53   99.33   70.00     0.001000       1.0016    2.9372    0.3372
 -153.44   86.85 -137.70     0.001000       1.0700    1.8864    0.4984
 -142.11   88.88   95.45     0.001000       0.9913    1.1717    0.8766
 -160.53   93.58   85.19     0.001000       1.0746    1.4586    0.6440
 -152.11   92.16  124.62     0.001000       1.0164    2.3164    0.4254
 -153.66   92.52   92.60     0.001000       1.0001    3.5882    0.2742
 -155.40  125.55   86.49     0.001000       1.0024    2.5639    0.3880
 -140.25   98.70  101.17     0.001000       0.9972    1.1615    0.8807
 -150.79   97.57  132.22     0.001000       1.0727    1.8519    0.5067
 -155.84  101.34   61.71     0.001000       1.0044    2.6389    0.3762
 -152.51   89.57 -137.05     0.001000       1.1546    1.5478    0.5654
 -148.25   30.45  -93.65     0.001000       0.8400    1.7350    0.6940
 -146.39   60.81   59.11     0.001000       1.0127    1.9696    0.5039
 -146.79   73.08   43.20     0.001000       1.0887    1.3876    0.6712
 -154.85   76.30  100.05     0.001000       1.0013    3.1715    0.3118
 -149.49   79.97 -137.25     0.001000       1.1232    1.3619    0.6627
 -153.62   87.57 -139.36     0.001000       1.0880    1.8072    0.5121
 -152.14   36.60  -94.21     0.001000       0.8689    1.9077    0.6078
 -153.42   90.81   59.88     0.001000       1.0046    2.5349    0.3919
 -157.48  117.64   77.99     0.001000       1.0030    2.8259    0.3505
 -153.81   90.95 -138.99     0.001000       1.2401    1.3692    0.5950
 -153.59   84.15   86.10     0.001000       1.0002    3.4884    0.2824
 -148.77   44.15  -99.32     0.001000       0.9436    2.1766    0.4891
 -149.32  116.85  110.39     0.001000       1.0043    2.3518    0.4231
 -160.89  133.37   70.00     0.001000       1.0008    2.1028    0.4775
 -158.86  108.51   84.35     0.001000       0.9941    1.1241    0.9093
 -149.66   92.51   79.61     0.001000       0.8644    1.4624    0.8033
 -161.59  106.61   94.47     0.001000       0.8718    1.4513    0.7988
 -152.98   89.27   57.56     0.001000       1.1953    1.2901    0.6569
 -150.40   93.09  132.39     0.001000       1.1478    1.4059    0.6277
 -153.76   96.49   91.59     0.001000       1.0002    3.5117    0.2804
 -156.45   63.34  102.16     0.001000       1.0029    2.7180    0.3654
 -152.96   98.46  102.38     0.001000       1.0008    3.1649    0.3123
   21.10   11.87   98.16     0.001000       0.8360    1.5130    0.8018
 -142.47   99.87  108.46     0.001000       0.9749    1.1780    0.8874
 -157.51   78.66  120.31     0.001000       1.0052    2.4223    0.4099
 -153.53   95.53  102.64     0.001000       1.0006    3.1994    0.3088
   28.80   33.07   87.92     0.001000       0.8304    1.7799    0.6836
 -155.76   81.51  116.46     0.001000       1.0032    2.6318    0.3773
 -155.08   87.28 -138.99     0.001000       1.2355    1.3079    0.6258
 -152.26   98.49  108.72     0.001000       1.0020    2.9744    0.3329
 -169.96  112.43   41.36     0.001000       1.0270    1.7291    0.5672
   21.22   45.42  102.88     0.001000       0.9988    2.1568    0.4659
   17.17   37.33  102.26     0.001000       0.8845    1.9680    0.5785
 -154.65   94.30  122.29     0.001000       1.1941    1.3435    0.6306
 -172.44  127.02   47.70     0.001000       0.9704    1.3844    0.7550
 -158.17  100.39   98.12     0.001000       0.9821    1.0782    0.9612
 -147.20   92.09  113.23     0.001000       1.1071    1.2261    0.7493
 -151.00   90.36  109.37     0.001000       1.1868    1.2904    0.6618
 -153.42   91.03  122.42     0.001000       1.0087    2.4860    0.3981
 -149.29   49.62   75.99     0.001000       0.9782    2.1811    0.4697
 -150.15   99.19  135.32     0.001000       1.1340    1.4485    0.6161
 -153.45   96.34   95.47     0.001000       1.0003    3.4645    0.2844
 -160.33   88.00   77.09     0.001000       1.1049    1.4126    0.6469
 -154.68   93.31   49.04     0.001000       1.0369    2.0968    0.4613
 -150.73  111.00  109.05     0.001000       1.0039    2.5460    0.3899
 -152.17   55.50   84.54     0.001000       1.0011    2.5283    0.3942
 -153.91   92.48  103.26     0.001000       1.0006    3.2200    0.3066
 -157.58   83.77  137.38     0.001000       1.1205    1.7692    0.5073
 -163.40  127.87   89.76     0.001000       0.8653    1.5190    0.7678
 -161.25   44.45 -101.19     0.001000       0.9125    1.4072    0.7866
 -152.82   96.45  104.59     0.001000       1.0009    3.1321    0.3158
 -155.63   60.10  101.50     0.001000       1.0035    2.6401    0.3768
 -158.67  124.11   63.88     0.001000       0.9091    1.3877    0.8053
 -153.64   66.26   89.00     0.001000       1.0021    2.9651    0.3339
 -150.98  105.64  117.30     0.001000       1.0166    2.4533    0.4001
 -152.45   83.66 -142.08     0.001000       1.1306    1.4433    0.6201
 -171.14   60.70   77.82     0.001000       0.9768    1.1099    0.9377
 -142.86   79.73   68.50     0.001000       1.0565    1.1564    0.8335
 -149.03   66.01   68.79     0.001000       1.0045    2.4261    0.4100
 -154.19   88.46  102.44     0.001000       1.0006    3.3352    0.2957
 -141.01   99.27  105.63     0.001000       0.9967    1.1265    0.9084
 -156.10  121.39   82.04     0.001000       1.0032    2.6639    0.3727
 -150.70  112.06   94.02     0.001000       0.8719    1.5682    0.7408
 -144.48   99.29   72.89     0.001000       0.9513    1.1702    0.9154
 -153.83   88.08   75.98     0.001000       1.0007    3.2180    0.3068
 -156.16   47.49   81.06     0.001000       0.8400    1.5690    0.7659
 -162.92  123.47  101.23     0.001000       0.9040    1.3543    0.8257
 -146.72   49.49   69.12     0.001000       0.9661    2.0629    0.5040
 -153.64   88.95   78.95     0.001000       1.0005    3.3507    0.2945
 -148.26   93.68   74.28     0.001000       1.1066    1.2129    0.7576
 -170.17   66.00  134.91     0.001000       1.0165    1.7777    0.5571
 -140.24   84.31   83.93     0.001000       0.9905    1.2141    0.8478
 -146.98  127.36  128.79     0.001000       1.0170    1.3109    0.7604
 -152.29   95.48  139.94     0.001000       1.1328    1.5359    0.5808
 -163.76   68.78   93.97     0.001000       0.8731    1.4477    0.7999
