MORPHOLOGY AT STRAIN =    1.0000  FOR PHASE  1
   1.071   2.295   0.407  <-- AXES OF PHASE ELLIPSOID
 -154.20   90.08   90.01  <-- EULER ANGLES OF PHASE ELLIPSOID (deg)
   1.097   2.452   0.397  <-- AVERAGE OF GRAIN AXES FOR PHASE
   0.158   0.224   0.264  <-- STANDARD DEV OF AVG GRAIN AXES FOR PHASE
B       500
 -164.02  123.18   60.18     0.002000       1.0505    1.9933    0.4789
 -153.26  110.96  100.83     0.002000       1.0529    2.9598    0.3174
 -154.73   92.83  108.46     0.002000       1.0789    3.1419    0.2913
 -154.11   90.39   87.80     0.002000       1.3335    2.1034    0.3554
 -153.87   92.36   99.21     0.002000       1.2564    2.2467    0.3531
 -154.96   86.25   87.14     0.002000       1.0003    3.7594    0.2610
 -149.99   88.35   87.48     0.002000       1.1820    1.8577    0.4566
 -154.23   77.72   82.24     0.002000       1.0265    3.4454    0.2784
 -154.82   88.91   81.02     0.002000       1.3344    2.3222    0.3204
 -157.62   67.96  107.62     0.002000       1.0368    2.8819    0.3327
 -155.18   89.63  104.24     0.002000       1.0075    3.4230    0.2858
 -155.14   95.26   90.60     0.002000       1.0003    3.7543    0.2613
 -155.38   84.66   82.20     0.002000       0.9380    2.0251    0.5261
 -153.23  100.90  102.17     0.002000       1.1323    1.8163    0.4862
 -155.72  101.44   94.02     0.002000       0.7489    2.4732    0.5388
 -144.98   85.92   82.72     0.002000       1.0485    1.7910    0.5388
 -155.13   85.06   96.79     0.002000       1.0004    3.7096    0.2647
 -159.84   51.82  106.35     0.002000       0.7718    2.3310    0.5585
 -151.52   91.68  100.43     0.002000       0.7167    2.4546    0.5704
 -156.40  108.67   81.75     0.002000       1.0019    3.3233    0.2965
 -152.78   70.89   77.53     0.002000       0.9302    2.2544    0.4754
 -152.70  104.61  104.92     0.002000       1.1075    3.0195    0.2957
 -155.68   97.01   84.30     0.002000       1.0005    3.6643    0.2679
 -154.26   96.70  106.96     0.002000       1.1007    3.1044    0.2888
 -153.49   90.49   91.08     0.002000       1.2685    2.2191    0.3544
 -162.85  108.85  100.03     0.002000       1.1864    1.5800    0.5351
 -156.06   92.69   94.50     0.002000       1.2060    2.3584    0.3492
 -153.93   87.74   74.54     0.002000       1.3950    2.2914    0.3105
 -142.61   87.28   82.31     0.002000       1.0099    1.8268    0.5490
 -156.31   91.81  110.33     0.002000       1.3991    2.2651    0.3124
 -155.75   92.83   93.40     0.002000       1.1980    2.3067    0.3599
 -152.70   78.75   68.16     0.002000       1.2175    2.4872    0.3276
 -153.73   85.00   74.91     0.002000       1.4016    2.1399    0.3315
 -144.74   82.87   72.22     0.002000       0.9805    1.9045    0.5418
 -155.01   88.64  112.23     0.002000       1.4306    2.4096    0.2871
 -151.95   74.75   71.68     0.002000       1.1133    1.9958    0.4496
 -153.14  102.58  107.77     0.002000       1.1459    2.8118    0.3071
 -154.77  127.82   88.13     0.002000       0.7985    2.7924    0.4474
 -156.12   83.86   87.85     0.002000       0.8384    2.4612    0.4833
 -153.35   84.09   84.40     0.002000       1.1291    1.7406    0.5093
 -155.23   56.94   89.18     0.002000       0.8955    2.9865    0.3708
 -156.09   83.26   83.84     0.002000       1.2297    2.2788    0.3547
 -153.82   92.04   96.39     0.002000       1.2796    2.2324    0.3487
 -156.11   95.74   68.85     0.002000       1.4376    2.3605    0.2916
 -154.44   92.34   99.07     0.002000       1.4014    2.1866    0.3243
 -152.99   86.89   94.08     0.002000       1.1191    1.6414    0.5459
 -159.46  121.76   74.73     0.002000       0.9797    2.7608    0.3680
 -153.56   93.36   96.63     0.002000       1.2678    2.2663    0.3469
 -154.80   90.56   69.33     0.002000       1.4401    2.3486    0.2928
 -156.33   99.32   66.13     0.002000       1.2014    2.7598    0.2987
 -156.35  101.44   77.82     0.002000       1.0018    3.4064    0.2889
 -155.20   91.11   94.96     0.002000       1.2235    2.4185    0.3356
 -154.50  102.64  100.28     0.002000       1.0717    1.9061    0.4888
 -154.52   84.75   76.49     0.002000       1.0308    3.3850    0.2824
 -156.30   56.60   95.78     0.002000       0.7772    2.8063    0.4575
 -148.34   98.48  103.79     0.002000       0.7575    2.2247    0.5972
 -150.81   79.34   79.99     0.002000       0.8681    2.3748    0.4866
 -153.68   84.55   66.11     0.002000       1.2717    2.5893    0.3007
 -155.43   92.17   87.26     0.002000       1.0001    3.7607    0.2608
 -156.96   96.67   85.65     0.002000       0.9582    1.8716    0.5579
 -155.24   90.95   97.09     0.002000       1.0005    3.6764    0.2670
 -153.78   91.03   92.43     0.002000       1.3216    2.1950    0.3434
 -150.62   94.20   87.60     0.002000       0.8317    2.4638    0.4904
 -155.87   87.31   81.83     0.002000       1.0012    3.5874    0.2730
 -154.91   89.31   86.26     0.002000       1.3007    2.2086    0.3464
 -154.48   92.26   99.69     0.002000       1.3505    2.2670    0.3243
 -154.00   98.16  107.43     0.002000       1.1214    3.0156    0.2921
 -153.60  107.45  102.95     0.002000       1.0212    2.2172    0.4396
 -152.87  114.05   98.92     0.002000       1.0368    2.9995    0.3184
 -156.21  101.48   96.10     0.002000       0.8332    2.1943    0.5461
 -153.41   87.71   88.14     0.002000       1.1192    1.7156    0.5216
 -152.63   92.68   93.66     0.002000       1.2354    2.1803    0.3707
 -155.39   81.39   98.10     0.002000       1.0008    3.6052    0.2728
 -154.18   85.62   86.25     0.002000       0.9645    2.4786    0.4175
 -155.12  102.41   94.15     0.002000       1.0152    3.5599    0.2718
 -155.48   86.10   96.44     0.002000       1.0003    3.6855    0.2664
 -154.74   91.01  112.67     0.002000       1.1914    2.8568    0.2906
 -154.63   90.88  113.38     0.002000       1.3705    2.5230    0.2861
 -154.20   91.69   97.92     0.002000       1.3269    2.3313    0.3211
 -153.83   97.26  108.93     0.002000       1.1426    2.9423    0.2940
 -153.27   93.40  101.62     0.002000       1.3431    2.2190    0.3337
 -154.73   77.57   90.14     0.002000       1.0024    3.6378    0.2697
 -155.87   81.24  105.43     0.002000       1.0138    3.3176    0.2937
 -155.37   91.66   98.01     0.002000       1.3050    2.2170    0.3437
 -155.32   87.60   89.06     0.002000       1.0001    3.7651    0.2605
 -154.10   91.33   99.56     0.002000       1.2715    2.2810    0.3432
 -152.28   92.29   90.59     0.002000       1.2467    2.1404    0.3744
 -157.24   82.16   88.00     0.002000       0.8653    2.4672    0.4667
 -151.24  100.74  105.82     0.002000       1.2073    1.9181    0.4320
 -150.49   84.97   80.62     0.002000       1.1355    1.7479    0.5059
 -154.85   93.45  109.27     0.002000       1.0956    3.0251    0.2981
 -156.14   77.14  101.07     0.002000       1.0018    3.4362    0.2865
 -142.32   92.06   95.95     0.002000       1.0084    1.5678    0.6411
 -152.17  111.09  106.01     0.002000       1.0731    2.5635    0.3610
 -154.05   92.56   94.63     0.002000       1.2454    2.2897    0.3493
 -153.48   80.35   73.40     0.002000       1.1035    3.0695    0.2917
 -159.40  107.66   66.38     0.002000       1.0177    2.7794    0.3510
 -150.13   93.43   94.13     0.002000       1.0334    2.1908    0.4441
 -148.19   94.02   72.10     0.002000       0.8029    1.8884    0.6658
 -149.84   93.39   91.62     0.002000       1.1692    1.8952    0.4529
 -151.49   97.91   99.70     0.002000       0.9533    2.3937    0.4392
 -151.28   91.83   92.03     0.002000       1.2225    2.0836    0.3927
 -154.73   90.19  100.64     0.002000       1.4102    2.2877    0.3074
 -154.54   89.56   64.87     0.002000       1.3438    2.5352    0.2905
 -155.65   91.09   91.93     0.002000       1.0471    1.8306    0.5217
 -155.10   91.75   91.49     0.002000       1.2490    2.2716    0.3507
 -154.09   74.40   86.30     0.002000       1.0131    3.5006    0.2777
 -154.84   90.40   73.18     0.002000       1.4385    2.3010    0.2994
 -151.98   97.61  103.22     0.002000       1.3285    2.0292    0.3702
 -153.76   89.42   84.32     0.002000       1.2526    2.1756    0.3662
 -153.80   84.93   69.14     0.002000       1.1440    2.9764    0.2902
 -155.56  120.21   87.46     0.002000       0.7449    2.8090    0.4764
 -161.68   52.44  113.82     0.002000       0.8918    2.0003    0.5641
 -154.02  102.29  100.23     0.002000       0.9510    2.1036    0.4990
 -156.66   97.34   96.18     0.002000       1.4282    1.9720    0.3532
 -155.31   92.08   70.07     0.002000       1.4735    2.2461    0.2993
 -150.10   97.53   98.58     0.002000       0.8708    2.4499    0.4706
 -157.21  103.61   67.14     0.002000       1.1136    2.8381    0.3137
 -152.66   78.94   74.15     0.002000       1.0305    1.9293    0.5032
 -152.71  112.51  101.99     0.002000       1.0538    2.8650    0.3281
 -154.58   79.61   83.83     0.002000       1.0130    3.5495    0.2735
 -150.14   90.93   90.26     0.002000       1.1592    1.7983    0.4811
 -153.06   54.92   87.59     0.002000       0.8461    2.9034    0.4053
 -155.22  106.91   77.15     0.002000       0.7269    2.5198    0.5474
 -153.71   79.09   75.88     0.002000       1.0779    3.1723    0.2886
 -155.03  119.80   88.20     0.002000       0.9821    3.0603    0.3299
 -145.39   88.83   87.89     0.002000       1.0005    2.0542    0.4920
 -153.60   80.26   67.39     0.002000       1.2447    2.4364    0.3269
 -151.78  102.37  109.72     0.002000       1.2031    2.0851    0.3977
 -154.75   90.72  104.53     0.002000       1.0138    3.4230    0.2842
 -150.13   86.96   83.60     0.002000       1.1752    1.9039    0.4484
 -156.79   86.37   86.00     0.002000       0.8823    2.3728    0.4763
 -156.01   88.12   95.05     0.002000       1.0130    1.8402    0.5366
 -159.92  117.96   69.91     0.002000       1.0211    2.6438    0.3690
 -152.20   75.89   68.77     0.002000       1.1808    2.2407    0.3761
 -150.04   77.24  103.26     0.002000       0.7922    2.2237    0.5723
 -160.19  126.40   68.08     0.002000       0.8505    2.2590    0.5233
 -153.51   89.87   92.79     0.002000       1.2714    2.2045    0.3558
 -164.73   95.25   77.82     0.002000       1.0026    1.1853    0.8499
 -153.62  106.23  103.80     0.002000       1.0486    2.1757    0.4364
 -156.03   79.80  106.82     0.002000       1.0289    3.2543    0.2952
 -157.17  102.16   65.47     0.002000       1.1854    2.6727    0.3130
 -152.48   96.05   96.95     0.002000       1.3237    2.0233    0.3724
 -154.82   72.38   90.41     0.002000       1.0038    3.4369    0.2859
 -153.08   85.49   75.89     0.002000       1.1188    1.8144    0.4930
 -153.74   87.84   79.50     0.002000       1.2850    2.2649    0.3421
 -154.63   89.95  100.77     0.002000       1.3496    2.3465    0.3134
 -142.66   87.89   79.23     0.002000       1.0736    1.6880    0.5591
 -154.01   90.24   90.20     0.002000       1.1007    1.6982    0.5358
 -145.57   97.80  106.52     0.002000       1.0002    1.8934    0.5340
 -151.44   76.69   68.11     0.002000       1.2059    2.2004    0.3755
 -155.64   91.58   98.45     0.002000       1.3360    2.1845    0.3405
 -154.27   97.83   92.26     0.002000       0.8218    2.5334    0.4799
 -155.08   95.66   91.55     0.002000       0.7856    2.5689    0.4945
 -147.96   85.81   79.37     0.002000       1.0822    2.0247    0.4603
 -156.01   96.97   69.81     0.002000       1.0484    3.1081    0.3036
 -153.58   58.78   87.31     0.002000       0.9494    2.9602    0.3534
 -153.35  103.16  101.80     0.002000       1.0706    3.2604    0.2826
 -154.35   90.08   86.64     0.002000       1.3109    2.1497    0.3536
 -152.88   90.54   87.80     0.002000       1.2459    2.1944    0.3650
 -151.90  104.92  107.80     0.002000       1.0894    2.0635    0.4443
 -155.83   85.24  107.21     0.002000       1.4540    2.3663    0.2874
 -155.41   95.41   93.76     0.002000       0.9156    2.5339    0.4295
 -152.53   64.59   76.13     0.002000       0.9840    2.5198    0.4007
 -148.78   98.26   98.92     0.002000       0.9446    2.1558    0.4946
 -154.03  107.96   98.25     0.002000       0.8843    2.2595    0.4992
 -155.16   91.64   69.04     0.002000       1.0631    3.0975    0.3002
 -155.09   83.54   94.40     0.002000       1.0004    3.7389    0.2626
 -146.89   89.04   87.26     0.002000       1.0470    1.2006    0.8056
 -156.91   86.87   94.16     0.002000       1.4222    2.2186    0.3138
 -154.10   91.21   99.26     0.002000       1.2435    2.2382    0.3581
 -155.54   86.27  104.29     0.002000       1.0054    3.4194    0.2868
 -153.96   97.17  103.92     0.002000       1.0612    3.3277    0.2792
 -149.82   90.66   90.60     0.002000       1.0002    2.3789    0.4225
 -155.58   56.84   96.14     0.002000       0.9537    2.9303    0.3562
 -153.89   89.09   91.11     0.002000       1.3414    2.1070    0.3528
 -154.24   88.85   80.61     0.002000       1.2875    2.2679    0.3407
 -151.40   76.69   69.29     0.002000       1.1767    2.0937    0.4051
 -153.92   84.31   88.01     0.002000       0.7910    2.5555    0.4945
 -158.58   84.54   91.60     0.002000       1.3657    2.1131    0.3437
 -155.87   87.88   63.51     0.002000       1.3402    2.4632    0.2994
 -158.45   95.16   93.37     0.002000       1.1203    2.1838    0.4069
 -153.66   68.28   79.20     0.002000       0.9427    2.2912    0.4610
 -154.07  122.79   85.20     0.002000       0.7310    2.6366    0.5198
 -156.42   90.67   81.14     0.002000       1.2835    2.3123    0.3342
 -155.29   87.93  107.89     0.002000       1.4715    2.3190    0.2901
 -153.84   91.98   92.83     0.002000       1.3754    2.1554    0.3358
 -155.48   91.18   97.34     0.002000       1.0049    1.8032    0.5526
 -151.03   88.14   88.16     0.002000       1.1581    1.7511    0.4943
 -153.90   90.12   96.37     0.002000       1.2718    2.1624    0.3627
 -152.90  103.35  104.53     0.002000       1.0216    1.9732    0.4960
 -154.77   89.89  103.30     0.002000       1.4212    2.3173    0.3010
 -157.10   79.73  114.74     0.002000       1.3036    2.4797    0.3067
 -150.18   88.37   84.36     0.002000       1.0026    1.1831    0.8524
 -154.03   90.54   85.53     0.002000       1.2340    2.4242    0.3324
 -151.81   83.53   83.96     0.002000       0.9062    2.4081    0.4593
 -155.06   90.90   75.58     0.002000       1.0051    3.4326    0.2857
 -154.87   97.32   94.50     0.002000       1.0044    3.6695    0.2665
 -154.66  113.43   92.63     0.002000       1.0114    3.1961    0.3056
 -156.85  127.88   84.80     0.002000       0.8556    2.7894    0.4174
 -156.78  107.24   78.85     0.002000       1.0020    3.2983    0.2988
 -152.35  102.76  110.18     0.002000       1.2057    2.1417    0.3857
 -152.06   95.27   98.14     0.002000       1.1070    1.7043    0.5318
 -141.56   93.60  104.96     0.002000       0.9942    1.6131    0.6320
 -153.92   92.00   98.82     0.002000       1.2614    2.2191    0.3561
 -156.62   85.13   83.12     0.002000       0.9378    1.8208    0.5865
 -155.44   94.42   66.89     0.002000       1.1284    2.9350    0.2988
 -150.08  100.18   97.25     0.002000       0.8362    2.3380    0.5139
 -155.21   74.02   91.42     0.002000       1.0024    3.4751    0.2829
 -159.59   67.82  115.69     0.002000       1.0995    2.4322    0.3729
 -164.12  121.32   66.03     0.002000       0.8885    2.5012    0.4493
 -153.16  105.77  104.04     0.002000       1.0995    2.9764    0.3021
 -155.78   83.12  106.85     0.002000       1.0228    3.2688    0.2955
 -152.36   91.53   80.12     0.002000       1.0806    1.6039    0.5797
 -155.08   92.97   94.46     0.002000       1.0005    3.7645    0.2604
 -145.19   91.06   89.94     0.002000       1.0576    1.2176    0.7866
 -151.60   98.00   98.16     0.002000       1.1647    1.7533    0.4907
 -154.05   81.39   76.23     0.002000       1.0600    3.2800    0.2836
 -150.69   83.72   83.60     0.002000       1.1713    1.7702    0.4836
 -151.90   96.95  104.66     0.002000       1.1048    1.8263    0.4966
 -155.82  110.22   85.52     0.002000       1.0022    3.3769    0.2914
 -150.70   92.63   88.86     0.002000       1.1532    1.6821    0.5172
 -151.45   93.96  101.82     0.002000       1.1799    1.8131    0.4680
 -154.82   87.69  111.98     0.002000       1.4245    2.4602    0.2823
 -153.63   89.42   84.23     0.002000       1.2737    2.1933    0.3571
 -152.76   90.61   97.04     0.002000       1.3023    2.3050    0.3320
 -154.60   90.81   99.93     0.002000       1.2813    2.3333    0.3325
 -153.86   87.86   82.69     0.002000       1.2772    2.2146    0.3523
 -153.86  115.29   95.48     0.002000       1.0179    3.0540    0.3183
 -154.64   90.32   89.59     0.002000       1.0908    1.7183    0.5341
 -159.95   89.18   87.13     0.002000       1.1322    2.1661    0.4055
 -153.45   87.41   85.29     0.002000       1.2603    2.2006    0.3596
 -155.02   89.12   81.46     0.002000       1.0008    3.6482    0.2692
 -154.65   90.60   98.43     0.002000       1.3290    2.3501    0.3178
 -154.23   84.47   70.59     0.002000       1.1142    3.0142    0.2942
 -152.34   85.77   90.78     0.002000       1.1273    1.6352    0.5442
 -153.91   90.43   82.80     0.002000       1.2619    2.2195    0.3558
 -152.80   94.95   95.31     0.002000       0.9909    2.4883    0.4053
 -154.77   95.14   92.08     0.002000       0.9091    2.5125    0.4368
 -157.00   97.63   85.53     0.002000       0.9710    1.8463    0.5582
 -151.19   88.29   78.28     0.002000       1.0935    1.6778    0.5476
 -151.81   61.01   79.47     0.002000       0.9509    2.7181    0.3847
 -153.76   96.02  110.72     0.002000       1.1772    2.8895    0.2906
 -155.82   82.02  101.48     0.002000       1.0017    3.4783    0.2829
 -153.04   90.01   82.06     0.002000       1.3034    2.1851    0.3503
 -159.34   84.76  100.48     0.002000       1.3663    1.9978    0.3641
 -157.34   92.28   92.01     0.002000       0.8962    2.4887    0.4463
 -158.14  114.37   72.76     0.002000       1.0176    2.9014    0.3366
 -153.46   83.31   92.41     0.002000       0.7116    2.5454    0.5528
 -162.35   64.92  118.67     0.002000       0.9536    1.5421    0.6868
 -147.79   93.77   95.74     0.002000       0.9963    2.2190    0.4562
 -155.35   89.76   93.14     0.002000       1.2844    2.4143    0.3197
 -148.32   80.03   76.79     0.002000       0.7688    2.2346    0.5856
 -154.58   89.30   79.45     0.002000       1.3018    2.3347    0.3269
 -152.68   81.48   66.67     0.002000       1.2856    2.3405    0.3301
 -154.46   88.94  113.76     0.002000       1.2378    2.8242    0.2830
 -157.30   61.48  100.58     0.002000       0.9978    2.9230    0.3407
 -153.30   94.06   93.40     0.002000       1.1375    1.7368    0.5067
 -152.30  101.78  111.27     0.002000       1.2036    2.5273    0.3262
 -155.75   87.06   84.18     0.002000       1.2227    2.3686    0.3429
 -155.28   96.97   92.78     0.002000       0.7466    2.5489    0.5245
 -143.05   92.08   96.57     0.002000       1.0448    1.7832    0.5435
 -154.94   88.45  114.37     0.002000       1.2636    2.7183    0.2881
 -154.55   88.84  113.75     0.002000       1.3837    2.5329    0.2824
 -154.35   67.31   88.99     0.002000       1.0061    3.2616    0.3013
 -154.62   87.80   65.12     0.002000       1.3644    2.3583    0.3080
 -154.91   90.26  109.60     0.002000       1.0723    3.1272    0.2947
 -155.33   76.27   93.93     0.002000       1.0013    3.5424    0.2777
 -153.25   92.52   85.22     0.002000       1.0764    1.5440    0.6046
 -155.84   91.09   96.22     0.002000       1.2467    2.2648    0.3521
 -154.76   91.98   99.17     0.002000       1.2861    2.2326    0.3466
 -152.42   75.33   72.84     0.002000       1.1278    2.8567    0.3073
 -153.16   64.61   88.10     0.002000       0.7236    2.7409    0.5035
 -143.35   93.89   97.35     0.002000       1.0190    1.6456    0.6041
 -156.26   51.13  101.67     0.002000       0.7846    2.4406    0.5246
 -154.47   95.19  111.28     0.002000       1.3750    2.2776    0.3166
 -153.73   53.70   88.94     0.002000       0.8443    2.8316    0.4167
 -151.33   83.72   75.60     0.002000       1.2527    1.9680    0.4054
 -155.86   95.98   69.80     0.002000       1.0478    3.1179    0.3027
 -153.63  113.36   98.75     0.002000       0.8593    2.3855    0.4861
 -154.30   54.45   89.80     0.002000       0.8308    2.9176    0.4105
 -154.17   91.67   99.51     0.002000       1.2923    2.2648    0.3400
 -155.26   59.02   91.47     0.002000       0.9626    2.9884    0.3449
 -150.63   96.28   96.30     0.002000       0.9158    2.4843    0.4409
 -154.76   76.95   86.96     0.002000       1.0077    3.5436    0.2755
 -150.36   75.82   94.79     0.002000       0.7681    2.4528    0.5340
 -154.21  118.20   95.78     0.002000       0.7790    2.5361    0.5048
 -153.87   90.87   97.28     0.002000       1.2591    2.1845    0.3627
 -153.56   89.73   93.65     0.002000       1.3574    2.1389    0.3434
 -154.83   87.09   77.27     0.002000       1.0111    3.4655    0.2811
 -158.85   70.33  114.55     0.002000       1.0910    2.5661    0.3557
 -153.20   80.68   67.92     0.002000       1.2243    2.5618    0.3159
 -153.85   96.77   96.21     0.002000       0.9313    2.5155    0.4261
 -160.94  108.79   59.74     0.002000       1.1781    2.2905    0.3689
 -156.08   87.53   78.62     0.002000       1.0046    3.5448    0.2753
 -155.88   87.55   73.19     0.002000       1.3974    2.2072    0.3215
 -152.95   89.96   82.68     0.002000       1.3206    2.2615    0.3337
 -148.19   85.42   82.43     0.002000       0.9239    2.2937    0.4754
 -153.53   75.63   79.64     0.002000       1.0521    3.2682    0.2870
 -151.91   65.54   76.08     0.002000       1.0104    2.6033    0.3777
 -151.98   79.64   73.51     0.002000       1.0795    1.8781    0.4939
 -152.36   68.64   77.05     0.002000       1.0696    2.8955    0.3198
 -154.83   88.53   71.86     0.002000       1.0409    3.2145    0.2950
 -151.72   81.34   74.68     0.002000       1.0970    1.8249    0.5006
 -155.39   88.76   94.10     0.002000       1.0001    3.7444    0.2620
 -153.51   89.65   90.29     0.002000       1.2832    2.1439    0.3629
 -153.82   88.53   84.79     0.002000       1.2528    2.2544    0.3529
 -154.43   96.51   90.56     0.002000       0.8415    2.6257    0.4515
 -154.13   89.03   84.06     0.002000       1.2948    2.2180    0.3466
 -147.69   89.56   90.25     0.002000       1.0002    2.2267    0.4530
 -152.64  107.67  106.86     0.002000       1.0748    2.1046    0.4409
 -155.82   90.70   95.62     0.002000       1.3066    2.2059    0.3449
 -152.43  101.38  111.66     0.002000       1.2428    2.3073    0.3467
 -151.94   74.49   69.24     0.002000       1.1633    2.4116    0.3541
 -153.78  119.57   93.37     0.002000       0.9731    2.9994    0.3398
 -153.76   93.10   91.08     0.002000       0.9099    2.5960    0.4226
 -153.29   88.04   86.79     0.002000       1.2433    2.1714    0.3698
 -154.37   90.72   87.88     0.002000       0.7417    2.5427    0.5302
 -152.78   90.08   83.11     0.002000       1.2828    2.3393    0.3321
 -149.95   90.81   87.48     0.002000       1.1922    1.8213    0.4618
 -153.93   99.56  105.49     0.002000       1.1001    3.0984    0.2896
 -161.08   96.04   93.83     0.002000       1.0664    2.0458    0.4571
 -153.93   89.24   90.56     0.002000       1.3415    2.1061    0.3529
 -159.56  116.69   68.38     0.002000       1.0437    2.6459    0.3608
 -154.78   86.58   75.82     0.002000       1.0202    3.3773    0.2860
 -153.44   89.46   83.68     0.002000       1.3252    2.1296    0.3535
 -154.79   92.54  113.69     0.002000       1.3677    2.3588    0.3072
 -151.85   95.05   96.03     0.002000       1.1959    1.7930    0.4668
 -162.14   67.27   79.97     0.002000       1.0866    1.6428    0.5624
 -152.28   90.28   91.36     0.002000       1.2342    2.1868    0.3701
 -154.94   91.37   93.91     0.002000       1.2257    2.2881    0.3549
 -155.82   92.84   90.96     0.002000       1.0187    1.8963    0.5174
 -155.82   97.47   80.84     0.002000       1.0008    3.5764    0.2747
 -154.17  119.19   91.61     0.002000       0.9795    3.0711    0.3294
 -152.80   99.42  106.54     0.002000       1.0974    1.9273    0.4725
 -152.43   85.99   85.07     0.002000       0.9364    2.5881    0.4125
 -154.80   95.99  109.49     0.002000       1.1334    2.9881    0.2913
 -149.20   91.78   88.44     0.002000       0.9290    2.3486    0.4615
 -153.93   90.45   97.56     0.002000       1.2452    2.2209    0.3606
 -153.50   87.12   83.58     0.002000       1.3156    2.1810    0.3469
 -155.89   80.60  106.40     0.002000       1.0244    3.2683    0.2953
 -152.28   82.38   81.61     0.002000       0.8646    2.5579    0.4522
 -158.47   55.57  102.88     0.002000       0.9495    2.6996    0.3891
 -154.14   96.95  105.09     0.002000       1.0743    3.2706    0.2806
 -174.05   97.23   88.25     0.002000       1.0030    1.3432    0.7470
 -154.35   86.66   66.40     0.002000       1.3551    2.4639    0.2964
 -150.91   95.26   96.33     0.002000       1.0137    2.2728    0.4357
 -153.74   80.15   75.54     0.002000       1.0790    3.2331    0.2827
 -153.40   58.60   83.52     0.002000       0.7801    2.5815    0.4952
 -153.61   75.35   75.73     0.002000       1.0738    2.0353    0.4562
 -154.83   92.29   68.56     0.002000       1.4313    2.4373    0.2836
 -151.84   95.12   95.41     0.002000       1.0232    2.3832    0.4107
 -154.66   89.73  101.71     0.002000       1.3872    2.3361    0.3060
 -142.45   90.99   90.95     0.002000       1.0042    1.8217    0.5536
 -155.69   84.58  103.26     0.002000       1.0033    3.4428    0.2854
 -149.87   91.66   92.65     0.002000       1.1048    2.1170    0.4301
 -150.14   93.14   92.36     0.002000       1.1868    1.8899    0.4469
 -158.06  130.44   80.70     0.002000       0.7953    2.6365    0.4768
 -155.23   86.48   89.13     0.002000       1.0735    1.7960    0.5187
 -154.98  110.50   88.50     0.002000       1.0042    3.3899    0.2898
 -154.11   90.33   87.22     0.002000       1.3244    2.1186    0.3553
 -155.00   89.38   88.77     0.002000       1.3043    2.2388    0.3406
 -153.99   88.70   78.52     0.002000       1.3173    2.2963    0.3287
 -151.00   80.67   74.79     0.002000       1.1568    1.8522    0.4677
 -154.64   91.36   98.03     0.002000       1.3393    2.3281    0.3184
 -154.64   85.92   70.75     0.002000       1.0906    3.0384    0.2981
 -150.11   88.65   91.00     0.002000       1.1052    1.5663    0.5812
 -156.41   93.74   94.66     0.002000       1.1920    2.3277    0.3581
 -154.96   88.86  100.61     0.002000       1.0012    3.6033    0.2727
 -154.21   91.11   94.89     0.002000       1.2844    2.2176    0.3498
 -155.59   94.21   67.39     0.002000       1.0979    2.9868    0.3017
 -156.70   82.12  114.79     0.002000       1.4104    2.3325    0.3011
 -153.61  124.07   92.72     0.002000       0.7744    2.7873    0.4617
 -156.17  100.69   79.55     0.002000       1.0012    3.4735    0.2832
 -153.32   97.93  110.32     0.002000       1.3282    2.2495    0.3323
 -152.71   92.28   92.73     0.002000       0.9700    2.5731    0.4003
 -155.26   74.27   93.17     0.002000       1.0017    3.4875    0.2821
 -153.72   86.79   75.76     0.002000       1.3661    2.2571    0.3221
 -154.64   67.71   91.43     0.002000       1.0033    3.3142    0.2973
 -154.56   88.73   79.88     0.002000       1.3327    2.3142    0.3220
 -157.89  127.13   78.40     0.002000       0.8254    2.6877    0.4508
 -152.32  100.73  111.98     0.002000       1.2398    2.3872    0.3357
 -153.04   76.05   74.52     0.002000       1.1046    2.9785    0.3005
 -154.40   97.35  109.82     0.002000       1.1576    2.8957    0.2945
 -161.17   52.59  106.70     0.002000       0.7935    2.4888    0.5074
 -155.24   93.47   88.52     0.002000       1.0474    1.5651    0.6125
 -150.15   89.32   95.98     0.002000       1.1835    1.8385    0.4607
 -157.73   53.20  102.99     0.002000       0.9164    2.6469    0.4122
 -154.55   88.85   65.05     0.002000       1.2804    2.6502    0.2916
 -157.20   88.48   86.42     0.002000       1.1489    2.2377    0.3871
 -155.00   91.05   75.82     0.002000       1.0049    3.4821    0.2815
 -153.49   88.77   87.59     0.002000       1.2683    2.2229    0.3538
 -155.62   95.52   91.39     0.002000       0.9086    2.5100    0.4371
 -155.25   87.86  111.73     0.002000       1.4563    2.3263    0.2922
 -155.48   84.36   90.18     0.002000       1.0612    1.7852    0.5280
 -152.34   75.91   70.86     0.002000       1.1561    2.7054    0.3169
 -157.19   61.80   99.84     0.002000       0.9944    2.9697    0.3362
 -153.54   96.34  109.08     0.002000       1.3855    2.1877    0.3277
 -159.50   57.70  103.75     0.002000       0.9471    2.8231    0.3721
 -152.64   66.65   92.58     0.002000       0.7149    2.5862    0.5423
 -155.37   72.99   92.38     0.002000       1.0023    3.4807    0.2824
 -154.08  117.12   94.77     0.002000       1.0048    3.0047    0.3280
 -150.72   89.28   84.65     0.002000       1.1655    1.7218    0.4997
 -153.05  109.70   99.23     0.002000       1.0521    3.1609    0.2971
 -153.65   62.93   87.35     0.002000       0.7124    2.6554    0.5279
 -155.07   92.91   79.72     0.002000       1.0595    1.6852    0.5614
 -152.44   80.46   70.23     0.002000       1.2961    2.1036    0.3652
 -153.57   56.12   84.57     0.002000       0.7748    2.6844    0.4788
 -155.75  112.89   88.72     0.002000       0.7053    2.6843    0.5267
 -145.32   88.06   87.48     0.002000       1.0459    1.8629    0.5191
 -150.72   85.59   81.37     0.002000       1.1171    1.6679    0.5392
 -155.95   95.65   71.68     0.002000       1.0169    3.2197    0.3017
 -154.06   87.13   80.89     0.002000       1.2503    2.3090    0.3449
 -150.10   88.72   89.42     0.002000       1.1997    1.8996    0.4398
 -156.15   97.20   70.50     0.002000       1.0325    3.1534    0.3036
 -154.65   86.28   73.02     0.002000       1.4177    2.2353    0.3129
 -158.65   85.48   89.21     0.002000       1.1875    2.2366    0.3739
 -152.85   90.65   84.47     0.002000       1.2772    2.3610    0.3304
 -154.37   92.13  113.12     0.002000       1.3799    2.4969    0.2872
 -154.93   92.78   92.49     0.002000       1.0002    3.7968    0.2583
 -157.15  123.92   84.20     0.002000       0.9200    2.9240    0.3693
 -161.94  104.02   95.48     0.002000       1.0394    1.8798    0.5120
 -153.57   96.46  108.02     0.002000       1.3672    2.2180    0.3274
 -154.82   93.09   65.33     0.002000       1.3353    2.6243    0.2823
 -153.30   87.89   79.34     0.002000       1.3046    2.2355    0.3414
 -150.96   99.20   99.85     0.002000       0.9344    2.3442    0.4580
 -151.46   70.54   70.84     0.002000       1.0985    2.3075    0.3928
 -150.85   80.16   75.75     0.002000       1.2080    1.8699    0.4433
 -155.96   77.46   99.99     0.002000       1.0017    3.4372    0.2865
 -150.90   82.21   80.94     0.002000       1.2668    1.9001    0.4156
 -154.64   86.49   75.32     0.002000       1.4116    2.2213    0.3164
 -154.33   96.37   94.98     0.002000       0.7619    2.5808    0.5079
 -154.55   89.36   64.94     0.002000       1.2760    2.6663    0.2909
 -157.50  116.46   78.75     0.002000       1.0019    3.0619    0.3231
 -153.86   89.70   86.75     0.002000       1.3288    2.1545    0.3481
 -154.84   84.14   86.45     0.002000       1.0012    3.7203    0.2636
 -153.07   53.69   87.98     0.002000       0.7682    2.7633    0.4701
 -152.23  111.93  104.91     0.002000       1.0767    2.6632    0.3461
 -161.27  125.95   68.62     0.002000       0.9418    2.3866    0.4455
 -154.58   94.42   86.09     0.002000       1.0917    1.6630    0.5519
 -144.02   83.64   74.14     0.002000       0.9679    1.9220    0.5437
 -157.13   88.99   90.65     0.002000       0.8510    2.3693    0.4948
 -152.29   88.95   86.88     0.002000       1.2528    2.1239    0.3752
 -152.25   93.29   96.46     0.002000       1.2747    2.1299    0.3677
 -155.01   96.61   91.41     0.002000       1.0009    3.7369    0.2624
 -157.37   65.46  102.27     0.002000       1.0035    3.0159    0.3278
 -154.32   98.20  101.13     0.002000       1.0390    3.4130    0.2777
 -147.57   83.14   75.66     0.002000       1.0305    2.0422    0.4794
 -161.87   88.45   93.67     0.002000       1.1022    1.9817    0.4567
 -155.71   86.24  116.85     0.002000       1.3061    2.5390    0.2986
 -154.69   95.57  101.69     0.002000       1.0255    3.4527    0.2781
 -151.94   81.11   80.91     0.002000       0.9158    2.4221    0.4515
 -155.33   86.83  114.55     0.002000       1.2336    2.7520    0.2915
 -154.18   87.72   88.42     0.002000       1.3026    2.1890    0.3492
 -153.86   97.16  106.32     0.002000       1.0944    3.1891    0.2827
 -155.40   90.23   80.91     0.002000       1.3122    2.3527    0.3213
 -160.92  129.87   74.34     0.002000       0.8214    2.5320    0.4813
 -152.37  110.63   85.31     0.002000       0.7332    2.5575    0.5353
 -153.92   92.14   94.90     0.002000       1.2841    2.1672    0.3583
 -158.45   93.83   87.10     0.002000       1.3128    2.1716    0.3479
 -154.46   88.44   97.00     0.002000       1.0471    1.5875    0.6041
 -149.69   92.57   96.20     0.002000       1.1543    1.8298    0.4755
 -152.07   91.87   92.59     0.002000       1.2359    2.1647    0.3734
 -154.61   91.31  114.59     0.002000       1.3416    2.6062    0.2827
 -152.79   57.11   82.55     0.002000       0.8580    2.7176    0.4267
 -151.90   97.00   98.96     0.002000       1.2917    1.9333    0.4000
 -154.72   96.63   95.10     0.002000       1.0045    3.6871    0.2652
 -152.93   88.42   81.72     0.002000       1.2965    2.2792    0.3373
 -154.42   89.44   71.90     0.002000       1.4308    2.3260    0.2978
 -152.85  107.25  104.88     0.002000       1.0987    2.8437    0.3168
 -154.17   57.35   87.62     0.002000       0.9236    2.9225    0.3678
 -154.90   92.87  102.54     0.002000       1.0129    3.4683    0.2802
 -155.15   90.70  102.22     0.002000       1.3337    2.2971    0.3240
 -156.69   95.04   92.78     0.002000       0.8162    2.3912    0.5110
 -155.78   74.51   83.06     0.002000       0.9194    2.1134    0.5136
 -154.28   96.28  103.20     0.002000       1.0446    3.3718    0.2798
 -157.23   62.75  102.39     0.002000       1.0045    2.9285    0.3379
 -161.26   99.49   87.58     0.002000       1.2574    1.9296    0.4105
 -154.83   67.01   89.71     0.002000       1.0029    3.2461    0.3035
 -152.86  101.03  110.59     0.002000       1.1915    2.6588    0.3127
 -152.10   85.50   84.53     0.002000       1.3416    2.0425    0.3642
 -155.13   86.10   82.13     0.002000       1.0208    1.6500    0.5956
 -151.24   86.53   77.97     0.002000       1.0998    1.7210    0.5305
 -151.80   69.51   74.06     0.002000       1.0964    2.7248    0.3320
 -155.10   89.09  102.01     0.002000       1.0024    3.5621    0.2756
 -160.52   95.65   92.91     0.002000       1.0472    2.0552    0.4636
 -157.47  119.99   81.31     0.002000       0.9898    2.9512    0.3397
 -148.03   91.07   92.29     0.002000       1.0513    2.0885    0.4594
 -165.89  103.80   84.80     0.002000       1.2655    1.5300    0.5174
 -154.86   87.69   76.73     0.002000       1.0103    3.4562    0.2820
 -156.47   86.49   86.42     0.002000       0.7838    2.5190    0.5048
 -155.38   97.01   94.70     0.002000       1.0044    2.0159    0.4930
 -151.71   62.00   77.73     0.002000       0.9003    2.5154    0.4400
 -154.84   88.46   79.46     0.002000       1.0026    3.5824    0.2739
 -149.90   91.81   85.64     0.002000       1.1703    1.7185    0.4991
 -156.20   88.27   98.43     0.002000       1.3479    2.3159    0.3175
 -162.80   70.18   81.84     0.002000       1.1296    1.6916    0.5246
 -153.46  101.06  101.97     0.002000       1.0810    1.8290    0.5061
 -153.41   93.85   96.60     0.002000       1.3617    2.1588    0.3387
 -156.01   93.90   90.29     0.002000       0.8910    2.4848    0.4504
MORPHOLOGY AT STRAIN =    2.0000  FOR PHASE  1
   1.154   3.546   0.244  <-- AXES OF PHASE ELLIPSOID
 -157.00   90.07   90.01  <-- EULER ANGLES OF PHASE ELLIPSOID (deg)
   1.198   3.880   0.238  <-- AVERAGE OF GRAIN AXES FOR PHASE
   0.225   0.277   0.318  <-- STANDARD DEV OF AVG GRAIN AXES FOR PHASE
B       500
 -163.09  121.94   73.79     0.002000       1.0118    3.7265    0.2649
 -156.97   98.72   99.17     0.002000       1.1055    4.7366    0.1881
 -157.98   88.62  103.64     0.002000       1.0894    5.1678    0.1749
 -156.89   90.01   88.50     0.002000       1.5127    3.0676    0.2143
 -156.78   91.87   97.36     0.002000       1.4146    3.3224    0.2114
 -157.52   88.45   87.87     0.002000       1.0004    6.2731    0.1561
 -155.18   88.24   85.38     0.002000       1.3563    2.9348    0.2511
 -157.27   84.58   83.88     0.002000       1.0352    5.6662    0.1675
 -157.23   88.84   82.18     0.002000       1.4856    3.4690    0.1920
 -158.66   73.95   99.53     0.002000       1.0374    5.2090    0.1832
 -157.84   87.87   99.94     0.002000       1.0080    5.7366    0.1700
 -157.57   93.38   90.83     0.002000       1.0005    6.2608    0.1563
 -157.51   87.32   81.09     0.002000       1.1671    2.8857    0.2955
 -156.36   94.97   98.56     0.002000       1.3483    2.7370    0.2699
 -156.97  102.34   97.04     0.002000       0.9255    3.4347    0.3126
 -153.47   87.19   85.60     0.002000       1.0139    3.0394    0.3281
 -157.62   86.35   94.40     0.002000       1.0004    6.2533    0.1567
 -161.34   47.18   98.84     0.002000       0.6751    4.1159    0.3604
 -155.26   97.21   96.72     0.002000       0.6062    3.9972    0.4134
 -158.03  102.92   85.98     0.002000       1.0033    5.6996    0.1721
 -156.99   83.10   78.38     0.002000       1.1579    3.2690    0.2620
 -157.08   94.59  101.59     0.002000       1.1457    4.8516    0.1773
 -157.84   95.39   86.64     0.002000       1.0006    6.1460    0.1593
 -157.79   90.48  102.89     0.002000       1.1173    5.0337    0.1750
 -156.67   90.38   91.01     0.002000       1.4351    3.2889    0.2107
 -164.74  111.18   67.33     0.002000       1.4661    1.8830    0.3628
 -157.77   91.66   93.17     0.002000       1.3806    3.3818    0.2120
 -156.92   88.54   79.47     0.002000       1.5930    3.4399    0.1805
 -152.50   87.30   84.94     0.002000       1.0052    3.2237    0.3124
 -157.88   91.16  104.31     0.002000       1.6203    3.2489    0.1875
 -157.59   91.90   92.81     0.002000       1.3554    3.3184    0.2205
 -157.05   86.67   72.32     0.002000       1.4582    3.6123    0.1874
 -156.82   87.26   80.91     0.002000       1.6303    3.1952    0.1902
 -152.92   84.10   78.18     0.002000       0.9758    3.1589    0.3281
 -157.47   88.73  108.00     0.002000       1.7854    3.4589    0.1597
 -156.25   84.22   78.00     0.002000       1.3643    2.9171    0.2499
 -157.41   93.02  104.36     0.002000       1.2177    4.4068    0.1836
 -156.71  117.44   91.97     0.002000       0.8036    4.5177    0.2738
 -158.48   81.99   85.83     0.002000       0.7815    3.0614    0.4165
 -156.17   86.33   83.36     0.002000       1.3102    2.6484    0.2875
 -156.93   67.63   86.58     0.002000       0.9179    4.7367    0.2273
 -157.77   85.88   86.87     0.002000       1.4826    3.3224    0.2009
 -156.78   91.71   96.23     0.002000       1.4327    3.3437    0.2073
 -157.97   94.08   70.18     0.002000       1.7705    3.3990    0.1638
 -157.08   91.67   97.36     0.002000       1.5808    3.2948    0.1902
 -155.84   87.99   89.75     0.002000       1.3270    2.4125    0.3124
 -159.23  113.79   83.20     0.002000       0.9806    4.8743    0.2074
 -156.70   92.23   95.01     0.002000       1.4325    3.3621    0.2063
 -157.31   90.45   75.78     0.002000       1.7561    3.4101    0.1647
 -158.49   97.85   72.94     0.002000       1.2203    4.8131    0.1681
 -158.23   98.96   82.70     0.002000       1.0020    5.8317    0.1682
 -157.38   91.08   94.79     0.002000       1.3857    3.5477    0.2013
 -156.92   95.02   98.13     0.002000       1.3043    2.7979    0.2724
 -157.66   89.55   80.23     0.002000       1.0346    5.5780    0.1703
 -158.08   58.86   91.96     0.002000       0.7391    4.6913    0.2867
 -153.89  100.33   99.02     0.002000       0.7011    3.6991    0.3874
 -155.42   82.39   82.77     0.002000       0.8467    3.7800    0.3128
 -157.17   87.81   70.33     0.002000       1.4920    3.8674    0.1709
 -157.71   92.03   88.33     0.002000       1.0001    6.2629    0.1562
 -157.68   92.92   88.40     0.002000       1.1742    2.5633    0.3314
 -157.66   89.80   95.05     0.002000       1.0006    6.1255    0.1599
 -156.78   91.28   94.45     0.002000       1.4898    3.3400    0.1995
 -155.86  105.53   89.19     0.002000       0.6357    4.1912    0.3763
 -157.94   89.90   84.19     0.002000       1.0013    5.9319    0.1647
 -157.24   89.33   86.14     0.002000       1.4587    3.2190    0.2113
 -157.10   91.61   98.26     0.002000       1.5047    3.3838    0.1944
 -157.74   91.02  103.52     0.002000       1.1492    4.8400    0.1770
 -157.23   95.76  101.85     0.002000       1.2784    3.1820    0.2434
 -156.65  101.32   97.82     0.002000       1.0980    4.8375    0.1857
 -157.64   94.89   97.14     0.002000       1.0946    3.1295    0.2900
 -155.90   88.24   84.41     0.002000       1.3165    2.5757    0.2945
 -156.32   91.95   94.11     0.002000       1.3943    3.3136    0.2154
 -157.72   83.93   95.00     0.002000       1.0009    6.1322    0.1600
 -156.83   86.63   86.69     0.002000       0.9693    3.7430    0.2746
 -157.51   96.79   93.80     0.002000       1.0218    5.8387    0.1643
 -157.75   86.98   94.25     0.002000       1.0003    6.1756    0.1586
 -157.92   88.51  107.94     0.002000       1.2494    4.6627    0.1692
 -157.47   89.50  110.19     0.002000       1.6945    3.6715    0.1584
 -156.98   91.53   97.17     0.002000       1.4771    3.5166    0.1906
 -157.73   90.55  104.86     0.002000       1.1856    4.6987    0.1768
 -156.64   92.17   98.94     0.002000       1.5054    3.3762    0.1950
 -157.36   82.73   89.38     0.002000       1.0042    6.1120    0.1599
 -158.11   82.79   99.89     0.002000       1.0140    5.7265    0.1696
 -157.41   91.48   97.33     0.002000       1.4559    3.2395    0.2102
 -157.65   88.99   89.27     0.002000       1.0001    6.2665    0.1562
 -156.88   91.41   98.30     0.002000       1.4173    3.4054    0.2056
 -156.18   91.63   91.45     0.002000       1.4198    3.2402    0.2165
 -158.31   83.68   88.26     0.002000       0.8386    3.6751    0.3225
 -155.82   94.94   99.61     0.002000       1.4270    2.9475    0.2369
 -155.29   87.15   81.86     0.002000       1.2969    2.7212    0.2837
 -158.06   88.88  104.55     0.002000       1.1132    4.9701    0.1780
 -158.05   80.81   96.59     0.002000       1.0020    5.8994    0.1664
 -152.25   90.38   91.95     0.002000       0.9089    2.8167    0.3959
 -156.96   96.59  103.80     0.002000       1.2150    3.8833    0.2093
 -156.89   91.74   93.68     0.002000       1.4080    3.3753    0.2090
 -157.50   88.28   77.37     0.002000       1.1225    4.9436    0.1775
 -159.77  104.87   76.29     0.002000       1.0181    4.9462    0.1963
 -155.30   92.85   93.79     0.002000       1.0277    3.5003    0.2790
 -153.06   83.82   80.41     0.002000       0.6741    3.2602    0.4588
 -155.23   92.05   92.09     0.002000       1.3406    2.9701    0.2513
 -155.66   95.46   97.25     0.002000       0.9516    3.7309    0.2818
 -155.79   91.65   93.37     0.002000       1.3942    3.2280    0.2215
 -157.22   90.47   98.29     0.002000       1.5982    3.4452    0.1795
 -157.47   90.89   68.50     0.002000       1.6495    3.6983    0.1617
 -156.96   91.31   90.49     0.002000       1.2596    2.5332    0.3126
 -157.33   91.00   90.47     0.002000       1.4112    3.2905    0.2136
 -157.09   81.62   86.55     0.002000       1.0224    5.8259    0.1650
 -157.29   90.10   78.66     0.002000       1.6885    3.4041    0.1717
 -156.14   93.97   97.87     0.002000       1.5399    3.1294    0.2063
 -156.74   89.44   85.70     0.002000       1.4184    3.1939    0.2197
 -157.79   90.53   73.88     0.002000       1.1843    4.7478    0.1752
 -157.29  117.76   90.81     0.002000       0.7069    4.4702    0.3145
 -162.24   49.88  102.46     0.002000       0.7882    3.7218    0.3419
 -157.19   95.03  100.72     0.002000       1.1935    3.0694    0.2711
 -158.10   94.53   90.43     0.002000       1.7890    2.7483    0.2015
 -157.50   91.28   76.01     0.002000       1.7891    3.2541    0.1695
 -155.19   95.52   96.72     0.002000       0.8563    3.9437    0.2968
 -158.88  101.11   75.49     0.002000       1.1171    5.0481    0.1752
 -156.53   85.38   76.39     0.002000       1.2466    2.8502    0.2804
 -156.83   98.97  100.12     0.002000       1.1244    4.5447    0.1929
 -157.37   85.17   85.13     0.002000       1.0176    5.8697    0.1643
 -154.98   90.14   92.65     0.002000       1.3576    2.8519    0.2583
 -156.04   66.58   85.49     0.002000       0.8804    4.6248    0.2436
 -161.71  128.53   80.89     0.002000       0.6184    4.1984    0.3850
 -157.43   87.12   79.26     0.002000       1.0920    5.1382    0.1753
 -157.14  109.07   91.22     0.002000       1.0049    5.1180    0.1921
 -153.58   88.83   88.61     0.002000       0.9999    3.5366    0.2857
 -157.23   87.03   71.65     0.002000       1.5420    3.4477    0.1856
 -156.22   95.15  102.68     0.002000       1.4863    3.0771    0.2172
 -157.70   88.45  100.23     0.002000       1.0150    5.7345    0.1690
 -155.32   88.04   84.32     0.002000       1.3357    2.9787    0.2514
 -159.16   87.94   85.18     0.002000       0.8894    2.7907    0.4015
 -157.33   89.86   94.58     0.002000       1.2415    2.5307    0.3174
 -159.61  111.41   80.14     0.002000       1.0218    4.7883    0.2026
 -156.62   84.77   74.06     0.002000       1.4709    3.2337    0.2082
 -158.39   61.10   98.14     0.002000       0.6563    4.0593    0.3773
 -161.53  126.25   78.58     0.002000       0.7949    4.1781    0.3015
 -156.62   90.39   94.55     0.002000       1.4464    3.3134    0.2074
 -148.06   85.73   76.34     0.002000       0.9876    1.8129    0.5665
 -157.16   95.55  102.12     0.002000       1.3124    3.1136    0.2424
 -158.22   81.77  100.70     0.002000       1.0293    5.6530    0.1694
 -158.87  100.05   73.39     0.002000       1.1959    4.7485    0.1740
 -156.39   93.48   95.60     0.002000       1.5432    3.0554    0.2107
 -157.30   79.40   89.15     0.002000       1.0091    5.7853    0.1685
 -156.40   87.16   78.26     0.002000       1.3376    2.6548    0.2809
 -156.74   88.16   81.56     0.002000       1.4344    3.3744    0.2051
 -157.16   90.49   98.92     0.002000       1.5064    3.5409    0.1854
 -152.48   87.63   83.37     0.002000       1.0866    2.8682    0.3251
 -155.88   90.46   89.10     0.002000       1.2912    2.4704    0.3133
 -153.23   96.22  100.95     0.002000       1.0022    3.1133    0.3239
 -156.26   84.89   75.48     0.002000       1.5133    3.1785    0.2061
 -157.54   91.39   97.84     0.002000       1.4857    3.1947    0.2088
 -157.01   95.50   92.18     0.002000       0.7983    3.9485    0.3161
 -157.36  103.33   94.25     0.002000       0.7232    3.5193    0.3914
 -154.38   86.82   82.87     0.002000       1.1088    3.2186    0.2824
 -158.42   97.01   76.62     0.002000       1.0493    5.3507    0.1756
 -156.44   71.04   85.63     0.002000       0.9918    4.8076    0.2075
 -157.13   94.85   99.15     0.002000       1.0890    5.3128    0.1701
 -156.99   90.09   87.60     0.002000       1.4854    3.1212    0.2143
 -156.41   90.13   87.33     0.002000       1.4320    3.2906    0.2111
 -156.39   95.63  103.44     0.002000       1.3522    3.0483    0.2411
 -157.78   86.93  104.79     0.002000       1.7898    3.4215    0.1608
 -157.36   93.52   93.32     0.002000       0.9148    3.8281    0.2839
 -157.06   81.44   77.58     0.002000       1.1481    3.7514    0.2292
 -154.72   96.15   96.37     0.002000       0.9183    3.5397    0.3093
 -157.24   96.20   98.41     0.002000       1.1348    3.2558    0.2684
 -158.15   93.83   75.18     0.002000       1.0680    5.2095    0.1772
 -157.57   85.77   92.67     0.002000       1.0005    6.2955    0.1556
 -150.19   88.63   85.22     0.002000       1.0988    1.9167    0.4823
 -158.17   88.32   94.88     0.002000       1.6509    3.2280    0.1851
 -156.86   91.25   97.57     0.002000       1.3990    3.2972    0.2155
 -157.97   85.92   99.65     0.002000       1.0055    5.7863    0.1690
 -157.46   91.52  100.34     0.002000       1.0693    5.4645    0.1683
 -155.17   90.50   90.41     0.002000       1.0002    3.8514    0.2606
 -157.39   67.01   91.43     0.002000       0.9574    5.0416    0.2055
 -156.82   89.63   90.63     0.002000       1.5225    3.0909    0.2113
 -156.96   88.89   82.02     0.002000       1.4344    3.3533    0.2062
 -156.11   84.60   76.66     0.002000       1.4496    3.0731    0.2230
 -157.06   86.96   88.08     0.002000       0.6946    3.9746    0.3614
 -158.95   86.58   93.72     0.002000       1.6105    2.9753    0.2062
 -157.91   89.37   68.49     0.002000       1.6565    3.4524    0.1722
 -158.87   93.15   91.71     0.002000       1.2615    3.0109    0.2613
 -157.21   83.10   80.22     0.002000       1.1962    3.2643    0.2535
 -157.16  123.41   88.73     0.002000       0.6586    4.4632    0.3399
 -157.87   89.72   81.82     0.002000       1.4284    3.3877    0.2043
 -157.52   88.63  103.46     0.002000       1.7996    3.3614    0.1630
 -156.84   91.68   94.05     0.002000       1.5605    3.2958    0.1928
 -157.18   90.61   99.27     0.002000       1.1970    2.5889    0.3221
 -155.23   88.90   85.62     0.002000       1.3595    2.7517    0.2671
 -156.79   90.43   95.20     0.002000       1.4363    3.1768    0.2180
 -156.68   94.95  102.63     0.002000       1.2585    2.9238    0.2704
 -157.25   90.18   99.57     0.002000       1.6360    3.4702    0.1739
 -158.77   81.49  109.64     0.002000       1.3524    4.2867    0.1705
 -148.23   87.22   85.84     0.002000       1.0021    2.0501    0.4937
 -156.91   89.94   85.44     0.002000       1.3987    3.6267    0.1954
 -155.92   84.78   85.19     0.002000       0.8763    3.8322    0.2978
 -157.85   92.85   80.17     0.002000       1.0054    5.7663    0.1696
 -157.46   93.92   93.66     0.002000       1.0062    6.0922    0.1599
 -157.11  103.65   93.55     0.002000       1.0407    5.2596    0.1799
 -157.63  117.56   89.90     0.002000       0.8568    4.6020    0.2517
 -158.28  102.44   83.98     0.002000       1.0026    5.6886    0.1725
 -156.54   95.12  103.88     0.002000       1.5158    3.0939    0.2113
 -155.72   92.85   98.42     0.002000       1.2721    2.6161    0.3006
 -151.59   93.99   99.43     0.002000       0.9938    2.8278    0.3608
 -156.79   91.64   97.11     0.002000       1.4210    3.2735    0.2137
 -157.78   89.69   82.33     0.002000       1.1346    2.5210    0.3490
 -158.21   95.04   73.41     0.002000       1.1408    5.0018    0.1729
 -155.25   97.50   95.20     0.002000       0.7967    3.8325    0.3283
 -157.47   80.22   89.93     0.002000       1.0053    5.8485    0.1672
 -159.70   72.29  104.09     0.002000       1.1003    4.5359    0.1989
 -163.19  122.11   76.91     0.002000       0.8782    4.2632    0.2655
 -157.19   95.22  101.16     0.002000       1.1358    4.7647    0.1820
 -158.14   83.74  101.10     0.002000       1.0231    5.6240    0.1712
 -155.60   90.60   82.60     0.002000       1.2710    2.3772    0.3317
 -157.57   91.42   93.35     0.002000       1.0007    6.2559    0.1564
 -150.48   91.51   93.03     0.002000       1.1096    1.9675    0.4653
 -155.69   94.17   97.08     0.002000       1.3403    2.7429    0.2716
 -157.52   88.08   79.74     0.002000       1.0685    5.3484    0.1721
 -155.40   86.37   83.65     0.002000       1.3347    2.7852    0.2689
 -155.97   93.47  101.91     0.002000       1.2891    2.7873    0.2779
 -157.71  103.32   88.53     0.002000       1.0073    5.7090    0.1710
 -155.24   92.21   92.50     0.002000       1.3465    2.5927    0.2866
 -155.84   92.33   99.51     0.002000       1.3738    2.7688    0.2623
 -157.43   88.08  108.74     0.002000       1.7758    3.5653    0.1557
 -156.71   89.46   85.79     0.002000       1.4396    3.2334    0.2137
 -156.40   91.02   96.58     0.002000       1.4561    3.5335    0.1931
 -157.10   91.13   98.72     0.002000       1.4227    3.4869    0.1998
 -156.78   88.27   83.59     0.002000       1.4317    3.2813    0.2115
 -156.81  103.59   95.66     0.002000       1.0672    4.9615    0.1862
 -156.19   89.54   92.64     0.002000       1.2986    2.4693    0.3115
 -159.57   88.73   85.72     0.002000       1.2666    2.9901    0.2618
 -156.63   88.17   85.76     0.002000       1.4212    3.2687    0.2141
 -157.65   91.00   84.12     0.002000       1.0009    6.0899    0.1609
 -157.17   90.89   97.55     0.002000       1.4825    3.5404    0.1885
 -157.93   90.54   75.23     0.002000       1.1354    4.8501    0.1788
 -155.67   87.32   87.24     0.002000       1.3134    2.4526    0.3106
 -156.81   89.94   84.10     0.002000       1.4205    3.2673    0.2141
 -156.23   93.72   94.06     0.002000       0.9907    3.8397    0.2623
 -157.14   94.06   92.29     0.002000       0.8988    3.8496    0.2877
 -157.65   93.15   88.90     0.002000       1.1784    2.5413    0.3331
 -155.40   88.89   80.66     0.002000       1.2701    2.5461    0.3099
 -156.38   78.11   80.15     0.002000       1.0878    4.1639    0.2183
 -157.72   90.26  106.64     0.002000       1.2550    4.5439    0.1727
 -157.97   83.77   97.31     0.002000       1.0018    5.9321    0.1654
 -156.44   89.29   82.56     0.002000       1.4597    3.3107    0.2058
 -159.34   86.65   99.53     0.002000       1.5686    2.8180    0.2240
 -158.26   91.58   92.08     0.002000       0.8932    3.6934    0.3010
 -158.86  107.85   81.16     0.002000       1.0182    5.1993    0.1869
 -156.84   75.74   90.55     0.002000       0.5690    4.1453    0.4236
 -155.21   86.82  107.90     0.002000       0.7451    2.4420    0.5556
 -154.42   92.27   94.13     0.002000       0.9951    3.6807    0.2751
 -157.47   90.54   94.50     0.002000       1.4353    3.5981    0.1913
 -154.13   79.61   81.63     0.002000       0.7028    3.7024    0.3859
 -157.10   88.97   81.07     0.002000       1.4436    3.4917    0.1965
 -156.69   86.52   73.81     0.002000       1.6208    3.3497    0.1821
 -157.65   87.95  109.05     0.002000       1.3255    4.6356    0.1605
 -158.21   69.96   94.49     0.002000       0.9996    5.1211    0.1934
 -156.08   92.98   95.77     0.002000       1.3364    2.6641    0.2802
 -156.95   93.50  107.29     0.002000       1.4471    3.7316    0.1829
 -157.59   87.74   84.63     0.002000       1.3708    3.4364    0.2102
 -156.63  106.62   96.34     0.002000       0.7869    3.4933    0.3621
 -152.65   92.41   94.45     0.002000       1.0333    3.1022    0.3159
 -157.84   87.54  110.19     0.002000       1.3664    4.4138    0.1636
 -157.42   88.44  110.62     0.002000       1.7126    3.6976    0.1557
 -157.01   76.38   87.79     0.002000       1.0208    5.4609    0.1768
 -157.33   89.59   70.86     0.002000       1.7208    3.3315    0.1722
 -158.02   87.44  104.24     0.002000       1.0808    5.2193    0.1747
 -157.58   81.30   91.80     0.002000       1.0021    6.0059    0.1632
 -155.76   91.14   87.51     0.002000       1.2755    2.2480    0.3497
 -157.61   91.22   96.12     0.002000       1.3955    3.2856    0.2162
 -157.15   91.67   97.75     0.002000       1.4402    3.2712    0.2106
 -157.12   86.05   76.53     0.002000       1.1790    4.5065    0.1856
 -155.85   65.29   85.72     0.002000       0.6979    4.1639    0.3428
 -152.78   92.59   93.50     0.002000       0.9559    2.8781    0.3681
 -158.64   51.89   95.29     0.002000       0.7116    4.3766    0.3215
 -157.23   92.53  104.16     0.002000       1.7124    3.2420    0.1778
 -156.23   65.01   86.21     0.002000       0.8678    4.5392    0.2520
 -155.90   86.54   79.81     0.002000       1.4388    3.0064    0.2302
 -158.37   96.39   76.46     0.002000       1.0489    5.3482    0.1757
 -157.16   97.84   99.14     0.002000       1.1067    3.4679    0.2580
 -156.52   64.40   87.01     0.002000       0.8408    4.6647    0.2529
 -156.91   91.59   98.29     0.002000       1.4399    3.3850    0.2036
 -157.13   69.44   88.50     0.002000       0.9774    4.9581    0.2040
 -155.45   94.26   95.13     0.002000       0.9069    3.9781    0.2776
 -157.35   82.93   87.12     0.002000       1.0123    5.8875    0.1647
 -156.40   60.56   92.25     0.002000       0.6318    4.3422    0.3656
 -156.75  103.59   98.24     0.002000       0.9704    3.6594    0.2793
 -156.77   90.90   95.81     0.002000       1.4224    3.2139    0.2176
 -156.68   90.55   95.38     0.002000       1.5304    3.2861    0.1975
 -157.71   90.52   81.01     0.002000       1.0125    5.7539    0.1686
 -159.39   74.48  103.96     0.002000       1.0917    4.7323    0.1919
 -157.30   87.58   71.68     0.002000       1.4361    3.7546    0.1830
 -156.68   94.48   94.99     0.002000       0.9303    3.8451    0.2785
 -160.94  106.62   70.34     0.002000       1.1888    4.1270    0.2021
 -158.16   90.80   81.88     0.002000       1.0049    5.7771    0.1686
 -157.67   88.31   77.48     0.002000       1.5683    3.1881    0.1977
 -156.46   89.19   82.95     0.002000       1.4675    3.4735    0.1949
 -154.50   85.96   84.96     0.002000       0.8643    3.8775    0.3002
 -157.10   84.28   81.88     0.002000       1.0681    5.3341    0.1727
 -156.77   81.80   77.68     0.002000       1.1523    3.9240    0.2184
 -156.13   85.50   77.14     0.002000       1.2797    2.8187    0.2766
 -156.75   81.77   79.45     0.002000       1.1266    4.5877    0.1908
 -157.97   92.11   77.10     0.002000       1.0450    5.3437    0.1763
 -155.89   86.01   78.10     0.002000       1.2779    2.7707    0.2821
 -157.69   88.94   92.83     0.002000       1.0001    6.2420    0.1568
 -156.65   89.89   90.56     0.002000       1.4531    3.1630    0.2166
 -156.80   88.96   86.23     0.002000       1.4162    3.3219    0.2113
 -157.09  105.23   90.67     0.002000       0.6725    4.2298    0.3499
 -156.93   89.28   84.85     0.002000       1.4586    3.2591    0.2088
 -154.40   89.49   90.15     0.002000       0.9999    3.7199    0.2709
 -156.74   95.93  102.62     0.002000       1.3505    3.0244    0.2429
 -157.62   90.91   96.13     0.002000       1.4551    3.2166    0.2117
 -156.64   94.25  105.67     0.002000       1.5689    3.3077    0.1907
 -156.82   85.26   73.35     0.002000       1.3942    3.5030    0.2024
 -156.64  106.87   94.71     0.002000       1.0301    4.8682    0.1970
 -156.80   97.27   90.48     0.002000       0.7448    4.1443    0.3227
 -156.56   88.76   87.48     0.002000       1.4096    3.2162    0.2196
 -157.18   93.73   89.56     0.002000       0.6009    4.0279    0.4123
 -156.42   89.52   83.92     0.002000       1.4434    3.5600    0.1933
 -155.21   90.65   90.12     0.002000       1.3946    2.8262    0.2536
 -157.60   92.03  101.93     0.002000       1.1191    5.0040    0.1757
 -160.36   94.61   94.63     0.002000       1.2000    2.7091    0.3060
 -156.83   89.71   90.23     0.002000       1.5197    3.0857    0.2120
 -159.58  110.37   78.93     0.002000       1.0446    4.8355    0.1964
 -157.76   90.50   79.91     0.002000       1.0228    5.6013    0.1716
 -156.62   89.33   85.39     0.002000       1.4993    3.1442    0.2110
 -157.42   90.52  108.99     0.002000       1.7229    3.3365    0.1717
 -156.01   93.08   94.83     0.002000       1.4342    2.6843    0.2591
 -165.51   66.92   93.59     0.002000       1.3727    1.7975    0.4065
 -156.15   90.60   93.58     0.002000       1.4129    3.3652    0.2094
 -157.24   91.13   93.54     0.002000       1.3843    3.3325    0.2151
 -157.02   90.75   93.08     0.002000       1.2304    2.6554    0.3050
 -157.97   96.14   84.34     0.002000       1.0009    6.0396    0.1622
 -156.80  107.52   93.38     0.002000       1.0209    5.0438    0.1917
 -156.54   94.67  104.01     0.002000       1.3238    2.8533    0.2635
 -156.16   87.26   85.94     0.002000       0.9285    4.0520    0.2652
 -158.18   89.65  105.34     0.002000       1.1706    4.7211    0.1779
 -155.22   96.50   88.88     0.002000       0.7461    4.0216    0.3350
 -156.80   90.75   96.38     0.002000       1.4027    3.2766    0.2163
 -156.71   88.22   84.40     0.002000       1.4867    3.2547    0.2051
 -158.14   82.31  100.48     0.002000       1.0246    5.6694    0.1697
 -156.02   84.51   83.44     0.002000       0.8549    3.9887    0.2927
 -158.73   63.87   95.33     0.002000       0.9459    4.7732    0.2200
 -157.61   91.07  101.27     0.002000       1.0838    5.3324    0.1702
 -151.88   95.62   74.15     0.002000       0.9809    1.3490    0.7643
 -157.29   88.78   71.34     0.002000       1.6770    3.5594    0.1651
 -155.53   94.07   95.19     0.002000       1.0139    3.5842    0.2758
 -157.46   87.70   79.12     0.002000       1.0905    5.2322    0.1724
 -156.22   72.81   81.38     0.002000       0.9322    3.7059    0.2873
 -156.85   84.52   79.36     0.002000       1.3286    2.9235    0.2555
 -157.37   91.62   73.70     0.002000       1.7803    3.5264    0.1570
 -155.87   93.71   94.31     0.002000       1.0331    3.6837    0.2628
 -157.19   90.24   99.13     0.002000       1.5647    3.5241    0.1792
 -152.52   90.67   90.80     0.002000       0.9918    3.2656    0.3125
 -157.99   85.05   98.76     0.002000       1.0034    5.8476    0.1676
 -155.17   91.26   92.13     0.002000       1.1420    3.2955    0.2670
 -155.32   92.40   94.06     0.002000       1.3534    2.9893    0.2470
 -158.51  124.09   86.96     0.002000       0.7557    4.4735    0.2947
 -156.70   87.60   85.31     0.002000       1.2681    2.5947    0.3031
 -157.34  102.83   90.48     0.002000       1.0150    5.7021    0.1700
 -156.89   89.92   87.76     0.002000       1.5043    3.0914    0.2138
 -157.32   89.82   91.23     0.002000       1.4669    3.2763    0.2063
 -156.87   88.70   80.65     0.002000       1.4610    3.4537    0.1964
 -155.65   85.54   79.47     0.002000       1.3367    2.8551    0.2617
 -157.16   91.30   97.28     0.002000       1.4931    3.4983    0.1894
 -158.03   91.06   75.63     0.002000       1.1058    4.9682    0.1792
 -154.86   89.60   91.01     0.002000       1.2951    2.4005    0.3228
 -157.89   92.52   93.61     0.002000       1.3488    3.3191    0.2212
 -157.64   88.06   97.30     0.002000       1.0013    6.0584    0.1618
 -156.94   90.97   94.34     0.002000       1.4467    3.2596    0.2107
 -158.31   95.17   74.04     0.002000       1.1047    5.0827    0.1757
 -158.49   83.47  114.43     0.002000       1.5770    3.6178    0.1731
 -156.15  111.99   95.47     0.002000       0.8370    4.2530    0.2789
 -158.11   98.29   83.77     0.002000       1.0014    5.9136    0.1659
 -156.84   94.29  105.41     0.002000       1.5843    3.2928    0.1896
 -156.28   91.43   92.21     0.002000       0.9663    4.0191    0.2568
 -157.52   80.14   91.13     0.002000       1.0033    5.9130    0.1657
 -156.82   87.96   79.75     0.002000       1.5374    3.3930    0.1898
 -157.16   76.16   89.48     0.002000       1.0116    5.6117    0.1736
 -157.11   88.70   81.51     0.002000       1.4813    3.4638    0.1929
 -158.94  121.66   85.03     0.002000       0.8004    4.6965    0.2650
 -156.74   93.75  106.82     0.002000       1.5500    3.4567    0.1845
 -157.27   86.12   77.88     0.002000       1.1352    4.7456    0.1828
 -158.02   90.42  106.01     0.002000       1.2223    4.5189    0.1781
 -161.68   50.10   98.98     0.002000       0.7331    4.3156    0.3156
 -156.58   91.35   90.93     0.002000       1.2502    2.1971    0.3648
 -155.33   89.86   94.89     0.002000       1.3642    2.8572    0.2564
 -158.52   61.38   95.35     0.002000       0.9012    4.7414    0.2331
 -157.63   90.75   68.80     0.002000       1.4610    4.0841    0.1652
 -158.22   88.85   87.05     0.002000       1.2962    3.1507    0.2430
 -157.83   92.89   80.34     0.002000       1.0052    5.8398    0.1674
 -156.67   89.29   88.59     0.002000       1.4350    3.2911    0.2106
 -157.48   94.45   91.72     0.002000       0.8996    3.7994    0.2910
 -157.53   88.42  107.17     0.002000       1.8041    3.3420    0.1636
 -156.96   87.14   86.06     0.002000       1.2394    2.5795    0.3119
 -157.15   86.46   74.58     0.002000       1.2524    4.1652    0.1891
 -158.17   70.25   94.12     0.002000       0.9964    5.1723    0.1919
 -156.82   93.17  101.14     0.002000       1.6913    3.1984    0.1829
 -159.37   64.87   96.30     0.002000       0.9458    4.8815    0.2145
 -156.50   59.91   90.36     0.002000       0.6007    4.3419    0.3834
 -157.54   79.39   90.51     0.002000       1.0052    5.8558    0.1669
 -156.82  104.91   95.44     0.002000       1.0586    4.8592    0.1917
 -155.36   89.55   88.42     0.002000       1.3878    2.6130    0.2757
 -156.81   98.99   97.66     0.002000       1.0907    5.1413    0.1756
 -155.79   64.77   84.53     0.002000       0.7176    3.9075    0.3553
 -156.68   91.13   82.21     0.002000       1.2758    2.3749    0.3300
 -156.40   85.49   78.37     0.002000       1.6026    3.0482    0.2030
 -155.99   67.48   82.44     0.002000       0.8569    3.9604    0.2924
 -157.43  117.15   91.48     0.002000       0.6429    4.1137    0.3761
 -153.65   88.87   88.31     0.002000       0.9879    3.1903    0.3206
 -155.25   87.61   82.43     0.002000       1.2878    2.5618    0.3038
 -158.33   96.13   77.90     0.002000       1.0172    5.4998    0.1760
 -156.88   87.84   82.72     0.002000       1.4025    3.4113    0.2075
 -155.30   88.94   87.95     0.002000       1.3874    2.9581    0.2435
 -158.46   97.17   77.21     0.002000       1.0330    5.4177    0.1761
 -157.24   87.73   77.96     0.002000       1.6202    3.2818    0.1858
 -158.97   87.97   91.89     0.002000       1.3580    3.1825    0.2289
 -156.45   89.83   84.42     0.002000       1.4360    3.6092    0.1916
 -157.31   90.51  108.64     0.002000       1.7188    3.6159    0.1585
 -157.50   91.61   91.97     0.002000       1.0002    6.3362    0.1545
 -157.94  114.22   89.00     0.002000       0.9257    4.8994    0.2182
 -162.25  100.60   95.71     0.002000       1.1950    2.2559    0.3706
 -156.88   93.53  102.69     0.002000       1.6131    3.2887    0.1864
 -157.67   93.12   68.14     0.002000       1.5563    4.0008    0.1584
 -156.60   88.31   81.32     0.002000       1.4507    3.3800    0.2025
 -155.45   96.45   97.28     0.002000       0.9280    3.6967    0.2920
 -156.65   84.01   74.95     0.002000       1.3424    3.3323    0.2213
 -155.62   85.21   81.02     0.002000       1.3962    2.9025    0.2462
 -157.94   81.18   95.89     0.002000       1.0018    5.9082    0.1662
 -155.66   85.70   83.86     0.002000       1.4482    2.9972    0.2297
 -157.21   87.82   79.23     0.002000       1.5981    3.2731    0.1890
 -157.00   96.15   93.52     0.002000       0.6784    3.9974    0.3676
 -157.64   91.04   68.86     0.002000       1.4393    4.1522    0.1650
 -158.41  108.57   84.94     0.002000       1.0044    5.3172    0.1849
 -156.77   89.16   84.94     0.002000       1.4982    3.2667    0.2030
 -157.47   87.27   87.26     0.002000       1.0017    6.2035    0.1577
 -155.79   62.73   85.44     0.002000       0.7810    4.3144    0.2952
 -156.90   97.41  102.55     0.002000       1.1788    4.1315    0.2026
 -160.60  120.62   79.95     0.002000       0.9270    4.3739    0.2459
 -156.44   92.83   91.38     0.002000       1.2895    2.4039    0.3224
 -152.87   85.43   79.45     0.002000       0.9704    3.2447    0.3211
 -159.52   89.72   91.30     0.002000       0.8441    2.7413    0.4309
 -156.22   89.38   87.64     0.002000       1.4394    3.2022    0.2159
 -156.19   92.26   96.15     0.002000       1.4296    3.2883    0.2117
 -157.51   94.05   91.47     0.002000       1.0014    6.2317    0.1570
 -158.36   72.76   95.99     0.002000       1.0044    5.3105    0.1853
 -157.44   92.73   98.40     0.002000       1.0460    5.6117    0.1674
 -154.10   84.68   80.17     0.002000       1.0353    3.2827    0.2966
 -160.82   89.75   95.29     0.002000       1.2180    2.6653    0.3065
 -158.17   85.96  113.35     0.002000       1.4308    4.0179    0.1718
 -157.59   91.36   98.63     0.002000       1.0293    5.6936    0.1676
 -155.86   83.71   83.16     0.002000       0.9061    3.7817    0.2917
 -158.03   86.41  109.48     0.002000       1.2937    4.5898    0.1662
 -156.97   88.62   88.41     0.002000       1.4949    3.2075    0.2070
 -157.60   90.90  102.26     0.002000       1.1093    5.1853    0.1711
 -157.46   89.52   81.95     0.002000       1.4612    3.4987    0.1934
 -160.51  126.53   82.78     0.002000       0.7823    4.4181    0.2885
 -156.95  121.09   88.13     0.002000       0.6210    4.3960    0.3667
 -156.80   91.56   94.25     0.002000       1.4515    3.1849    0.2151
 -158.85   92.08   85.76     0.002000       1.5118    3.0908    0.2115
 -156.27   89.48   97.02     0.002000       1.2396    2.2771    0.3550
 -155.12   91.81   95.75     0.002000       1.3194    2.8840    0.2631
 -156.10   91.70   93.75     0.002000       1.4010    3.3257    0.2137
 -157.52   89.80  111.01     0.002000       1.6232    3.8504    0.1575
 -156.26   73.37   81.56     0.002000       0.9873    4.0872    0.2452
 -155.99   93.14   93.72     0.002000       1.5563    2.9426    0.2173
 -157.42   93.41   94.02     0.002000       1.0061    6.1294    0.1589
 -156.46   88.65   83.89     0.002000       1.4611    3.4177    0.1990
 -157.13   89.64   78.12     0.002000       1.6933    3.4398    0.1695
 -157.15   95.49  102.14     0.002000       1.1581    4.4908    0.1895
 -156.56   69.51   85.60     0.002000       0.9634    4.6873    0.2191
 -157.68   89.91   99.01     0.002000       1.0148    5.7642    0.1679
 -157.33   90.98  100.21     0.002000       1.4782    3.4078    0.1964
 -157.76   98.66   94.22     0.002000       0.9595    3.1514    0.3288
 -157.48   85.10   83.80     0.002000       1.1438    2.9901    0.2904
 -157.53   91.30   99.76     0.002000       1.0507    5.5555    0.1685
 -158.26   70.87   95.72     0.002000       1.0057    5.1985    0.1894
 -160.55   97.14   84.97     0.002000       1.5121    2.5563    0.2569
 -157.18   75.90   88.21     0.002000       1.0156    5.4222    0.1789
 -157.28   92.75  107.05     0.002000       1.3676    4.0088    0.1799
 -156.16   87.06   85.47     0.002000       1.5317    3.1956    0.2031
 -156.80   88.92   81.62     0.002000       1.2083    2.3275    0.3559
 -155.49   88.00   80.03     0.002000       1.2677    2.6268    0.3008
 -156.78   83.27   77.15     0.002000       1.1768    4.2436    0.1977
 -157.74   87.95   98.31     0.002000       1.0027    5.9653    0.1642
 -160.13   93.88   92.34     0.002000       1.1608    2.7387    0.3131
 -158.22  110.96   86.96     0.002000       0.9951    5.0649    0.1961
 -154.58   90.83   90.86     0.002000       1.0027    3.4468    0.2915
 -168.50  107.23   54.16     0.002000       1.4116    1.8975    0.3736
 -157.74   90.92   80.68     0.002000       1.0116    5.7455    0.1690
 -158.19   80.83   84.60     0.002000       0.7193    3.3115    0.4179
 -157.20   92.37   94.35     0.002000       1.2443    2.8518    0.2802
 -156.61   80.28   78.94     0.002000       1.1051    3.7255    0.2405
 -157.63   90.88   82.69     0.002000       1.0030    5.9818    0.1636
 -155.10   91.26   88.83     0.002000       1.3711    2.6565    0.2748
 -157.82   89.46   97.59     0.002000       1.5238    3.4282    0.1890
 -164.49   69.92   93.18     0.002000       1.4298    1.8856    0.3713
 -156.43   94.42   99.48     0.002000       1.2783    2.7381    0.2848
 -156.68   92.48   95.85     0.002000       1.5321    3.3030    0.1961
 -157.71   93.69   90.99     0.002000       0.8733    3.7394    0.3046
