MORPHOLOGY AT STRAIN =    0.0040  FOR PHASE  1
   0.999   1.005   0.996  <-- AXES OF PHASE ELLIPSOID
  179.99   89.86   90.02  <-- EULER ANGLES OF PHASE ELLIPSOID (deg)
   1.002   1.011   0.987  <-- AVERAGE OF GRAIN AXES FOR PHASE
   0.003   0.003   0.002  <-- STANDARD DEV OF AVG GRAIN AXES FOR PHASE
B      1148
  179.97   89.96  179.84     0.000000       1.0043    1.0117    0.9842
    0.14    0.00    0.00     0.000000       1.0028    1.0076    0.9896
  179.98   89.83   90.05     0.000000       0.9937    1.0198    0.9868
 -175.65  128.70   43.66     0.000000       1.0005    1.0127    0.9870
  179.99   90.28 -166.80     0.000145       1.0041    1.0119    0.9842
 -179.84   92.62 -170.56     0.000161       1.0042    1.0118    0.9843
 -179.89   93.05 -172.32     0.000850       1.0042    1.0117    0.9843
 -179.94   93.38 -174.35     0.000146       1.0042    1.0117    0.9843
 -179.93   90.93 -146.59     0.000338       1.0025    1.0133    0.9844
 -179.75   92.84 -147.30     0.000403       1.0026    1.0132    0.9844
 -179.58   94.68 -148.76     0.000062       1.0028    1.0130    0.9844
 -179.45   96.39 -151.03     0.000355       1.0030    1.0128    0.9844
 -179.42   97.94 -154.17     0.000441       1.0032    1.0125    0.9844
 -179.49   99.26 -158.25     0.000782       1.0035    1.0122    0.9845
 -179.61  100.30 -163.38     0.000271       1.0038    1.0119    0.9845
 -179.32   94.63   45.70     0.000388       1.0006    1.0149    0.9847
 -178.92   97.65   44.09     0.000432       1.0009    1.0146    0.9847
 -178.64  100.53 -138.45     0.000764       1.0013    1.0142    0.9848
 -178.54  103.18 -142.08     0.000633       1.0018    1.0136    0.9848
 -178.93  107.36 -153.72     0.000402       1.0031    1.0122    0.9849
 -178.67   96.16   55.38     0.000389       0.9987    1.0165    0.9851
 -177.91  100.29   53.74     0.000702       0.9990    1.0161    0.9852
 -177.38  104.38   51.12     0.000649       0.9994    1.0155    0.9853
 -177.87  114.66   34.63     0.000440       1.0020    1.0126    0.9856
 -178.62  116.67 -156.01     0.000541       1.0030    1.0115    0.9856
 -177.80   97.23   63.39     0.000063       0.9969    1.0178    0.9856
 -176.53  102.36   61.81     0.000250       0.9972    1.0174    0.9857
 -175.63  107.74   59.23     0.000058       0.9976    1.0167    0.9859
 -177.66  125.27   30.41     0.000854       1.0023    1.0115    0.9864
 -178.91   92.39   71.05     0.000065       0.9954    1.0189    0.9860
 -176.76   97.57   70.39     0.000089       0.9955    1.0187    0.9861
    3.59   45.30  143.40     0.000806       1.0014    1.0113    0.9874
    1.27   43.38  -15.29     0.000123       1.0030    1.0097    0.9874
 -178.55   92.07   77.15     0.000250       0.9945    1.0194    0.9864
    5.05   34.62  137.65     0.000444       1.0005    1.0112    0.9884
    1.78   32.39  161.09     0.000677       1.0027    1.0091    0.9884
 -178.27   91.37   82.60     0.000006       0.9940    1.0197    0.9867
 -174.68   94.77   82.31     0.000388       0.9938    1.0196    0.9869
 -170.93   99.66   81.71     0.000412       0.9935    1.0194    0.9874
    6.52   22.17  132.83     0.000165       0.9998    1.0111    0.9893
    2.31   20.17  -22.24     0.001189       1.0024    1.0085    0.9891
 -178.11   90.38   87.62     0.000200       0.9937    1.0198    0.9868
 -159.96  116.77   86.39     0.000182       0.9920    1.0179    0.9904
    7.73    7.69  -50.29     0.000021       0.9993    1.0110    0.9898
    3.01    6.84  -24.71     0.001447       1.0022    1.0083    0.9896
 -179.85   92.11 -169.10     0.000159       1.0041    1.0118    0.9843
 -179.88   92.62 -170.56     0.000795       1.0042    1.0118    0.9843
 -179.93   93.05 -172.32     0.000143       1.0042    1.0117    0.9843
 -179.91   90.92 -146.58     0.000408       1.0026    1.0133    0.9844
 -179.72   92.83 -147.30     0.000067       1.0026    1.0132    0.9844
 -179.54   94.67 -148.78     0.000416       1.0028    1.0130    0.9844
 -179.44   96.39 -151.06     0.000419       1.0030    1.0128    0.9844
 -179.45   97.94 -154.17     0.000260       1.0032    1.0125    0.9845
 -179.52   99.27 -158.24     0.000273       1.0035    1.0122    0.9845
 -179.77   91.52   46.49     0.000466       1.0005    1.0151    0.9847
 -179.29   94.61   45.71     0.000546       1.0006    1.0149    0.9847
 -178.89   97.63   44.08     0.000651       1.0009    1.0146    0.9847
 -178.62  100.51 -138.47     0.000354       1.0013    1.0142    0.9848
 -178.68  105.51 -147.02     0.000392       1.0024    1.0129    0.9849
 -178.95  107.36 -153.71     0.000555       1.0031    1.0122    0.9849
 -179.56   92.02   56.19     0.000360       0.9985    1.0167    0.9851
 -178.65   96.14   55.39     0.000493       0.9987    1.0165    0.9851
 -177.89  100.27   53.74     0.000456       0.9990    1.0161    0.9852
 -177.88  114.66   34.64     0.000629       1.0020    1.0126    0.9855
 -178.61  116.67 -156.00     0.000219       1.0030    1.0116    0.9856
 -177.80   97.23   63.41     0.000192       0.9969    1.0178    0.9856
 -176.38  122.37   42.08     0.000068       1.0008    1.0130    0.9864
 -177.63  125.26   30.43     0.000626       1.0023    1.0115    0.9864
 -178.94   92.46   71.05     0.000161       0.9954    1.0189    0.9860
 -176.77   97.61   70.40     0.000007       0.9955    1.0187    0.9861
    3.62   45.32  143.38     0.000486       1.0014    1.0113    0.9874
 -169.33  121.42   70.39     0.000111       0.9950    1.0173    0.9880
    5.07   34.63  137.65     0.000295       1.0005    1.0112    0.9884
 -178.28   91.44   82.60     0.000338       0.9939    1.0197    0.9867
 -174.69   94.83   82.31     0.000381       0.9938    1.0196    0.9869
 -170.94   99.71   81.71     0.000463       0.9935    1.0194    0.9874
 -165.07  123.47   78.19     0.000146       0.9934    1.0177    0.9892
    6.49   22.16  132.88     0.000116       0.9998    1.0111    0.9893
    2.27   20.17  -22.18     0.000001       1.0024    1.0085    0.9892
 -178.12   90.45   87.62     0.000189       0.9937    1.0198    0.9868
    7.45    7.66  -49.99     0.000144       0.9993    1.0110    0.9898
    2.73    6.84  -24.40     0.000088       1.0022    1.0083    0.9896
 -179.85   91.54 -167.98     0.000155       1.0041    1.0119    0.9843
 -179.89   92.11 -169.10     0.000744       1.0041    1.0118    0.9843
 -179.93   92.63 -170.55     0.000141       1.0042    1.0118    0.9843
 -179.97   93.73 -178.96     0.000160       1.0043    1.0117    0.9842
 -179.88   90.91 -146.58     0.000070       1.0026    1.0133    0.9844
 -179.68   92.82 -147.32     0.000429       1.0026    1.0132    0.9844
 -179.52   94.66 -148.82     0.000402       1.0028    1.0130    0.9844
 -179.49   97.95 -154.16     0.000291       1.0032    1.0125    0.9845
 -179.55   99.27 -158.23     0.000157       1.0035    1.0122    0.9845
 -179.88  101.38 -176.53     0.000507       1.0042    1.0115    0.9845
 -179.75   91.50   46.50     0.000587       1.0005    1.0151    0.9847
 -179.27   94.59   45.70     0.000569       1.0006    1.0149    0.9847
 -178.87   97.62 -135.94     0.000072       1.0009    1.0146    0.9847
 -178.60  103.20 -142.08     0.000199       1.0018    1.0136    0.9848
 -178.70  105.52 -147.01     0.000574       1.0024    1.0129    0.9849
 -178.95  107.36 -153.70     0.000109       1.0031    1.0122    0.9849
 -179.70  109.31 -173.98     0.001149       1.0040    1.0113    0.9849
 -179.54   92.00   56.20     0.000318       0.9985    1.0167    0.9850
 -178.63   96.12   55.39     0.000456       0.9987    1.0165    0.9851
 -177.39  111.81   42.04     0.000062       1.0010    1.0137    0.9855
 -177.86  114.66   34.65     0.000321       1.0020    1.0126    0.9855
 -179.44  117.69 -171.20     0.002138       1.0037    1.0108    0.9856
 -177.78   97.21   63.41     0.000003       0.9969    1.0178    0.9856
 -176.51  102.33   61.82     0.000018       0.9972    1.0174    0.9857
 -176.36  122.36   42.09     0.000138       1.0008    1.0130    0.9864
 -177.60  125.25   30.44     0.000443       1.0023    1.0114    0.9864
 -179.12  126.72 -168.13     0.003654       1.0034    1.0103    0.9865
 -178.94   92.47   71.06     0.000146       0.9955    1.0189    0.9859
 -173.09  124.89   57.25     0.000085       0.9978    1.0151    0.9872
 -174.40  130.75   49.00     0.000034       0.9995    1.0133    0.9874
    3.63   45.32  143.39     0.000972       1.0014    1.0113    0.9874
    1.29   43.39  -15.28     0.005571       1.0030    1.0097    0.9874
 -172.86  102.89   75.61     0.000174       0.9944    1.0190    0.9869
 -169.92  132.22   64.55     0.000208       0.9962    1.0157    0.9884
    7.98   39.56  124.43     0.000323       0.9981    1.0136    0.9885
    5.04   34.63  137.69     0.001533       1.0005    1.0112    0.9884
    1.74   32.40  161.15     0.008002       1.0027    1.0091    0.9884
 -178.30   91.55   82.60     0.000394       0.9939    1.0197    0.9867
 -174.71   94.92   82.31     0.000054       0.9938    1.0196    0.9869
 -167.34  108.24   80.63     0.000011       0.9932    1.0188    0.9883
   13.95   38.24  108.00     0.000060       0.9946    1.0160    0.9896
   10.52   27.20  118.50     0.000508       0.9969    1.0137    0.9895
    6.40   22.14  132.99     0.001875       0.9998    1.0111    0.9893
    2.15   20.16  -22.05     0.010560       1.0024    1.0086    0.9892
 -178.12   90.56   87.62     0.000147       0.9937    1.0198    0.9869
 -164.73   98.04   87.07     0.000106       0.9924    1.0190    0.9889
   17.78   18.90  101.29     0.000287       0.9933    1.0162    0.9907
   12.13   10.01  114.73     0.000658       0.9961    1.0138    0.9902
    7.01    7.62  -49.53     0.002033       0.9993    1.0110    0.9898
    2.24    6.82  -23.89     0.012711       1.0022    1.0083    0.9896
 -179.86   90.92 -167.23     0.000152       1.0041    1.0119    0.9843
 -179.89   91.54 -167.98     0.000701       1.0041    1.0119    0.9843
 -179.93   92.12 -169.09     0.000140       1.0041    1.0118    0.9843
 -179.95   93.61 -176.58     0.000162       1.0043    1.0117    0.9842
 -179.92   93.73 -178.96     0.000959       1.0043    1.0117    0.9842
 -179.84   90.89 -146.61     0.000420       1.0025    1.0133    0.9844
 -179.65   92.81 -147.36     0.000384       1.0026    1.0132    0.9844
 -179.51   96.41 -151.05     0.000303       1.0030    1.0128    0.9844
 -179.52   97.96 -154.15     0.000326       1.0032    1.0125    0.9845
 -179.72  101.02 -169.53     0.000549       1.0041    1.0117    0.9845
 -179.83  101.38 -176.53     0.002815       1.0042    1.0115    0.9845
 -179.72   91.48   46.49     0.000518       1.0005    1.0151    0.9847
 -178.62  103.21 -142.07     0.000329       1.0018    1.0136    0.9848
 -178.71  105.52 -147.00     0.000157       1.0024    1.0129    0.9849
 -178.93  107.36 -153.69     0.000175       1.0031    1.0122    0.9849
 -179.25  108.64 -162.65     0.001264       1.0036    1.0116    0.9849
 -179.67  109.31 -173.98     0.004569       1.0040    1.0113    0.9849
 -179.52   91.98   56.20     0.000401       0.9985    1.0167    0.9850
 -177.23  108.32   47.32     0.000104       1.0001    1.0147    0.9854
 -177.39  111.81   42.05     0.000231       1.0010    1.0137    0.9855
 -177.84  114.65   34.65     0.000898       1.0020    1.0126    0.9855
 -178.54  116.65 -156.00     0.002068       1.0030    1.0116    0.9856
 -179.44  117.69 -171.21     0.006236       1.0037    1.0108    0.9856
 -175.28  113.19   55.38     0.000100       0.9984    1.0157    0.9861
 -175.54  118.22   49.90     0.000539       0.9995    1.0145    0.9863
 -176.34  122.35   42.09     0.001585       1.0008    1.0130    0.9864
 -177.59  125.24   30.43     0.002735       1.0023    1.0114    0.9864
 -179.13  126.71 -168.14     0.008053       1.0034    1.0103    0.9865
 -173.34  110.21   66.64     0.000066       0.9959    1.0177    0.9866
 -172.70  117.68   62.89     0.000018       0.9966    1.0166    0.9870
 -173.08  124.89   57.25     0.001002       0.9978    1.0151    0.9872
 -174.40  130.74   49.00     0.001955       0.9995    1.0133    0.9874
    3.62   45.32  143.41     0.002990       1.0014    1.0113    0.9874
    1.26   43.39  -15.26     0.009874       1.0030    1.0097    0.9874
 -175.68   96.94   76.66     0.000307       0.9944    1.0193    0.9865
 -172.86  102.92   75.61     0.000114       0.9944    1.0190    0.9869
 -170.52  111.02   73.74     0.000314       0.9944    1.0184    0.9875
 -169.35  121.46   70.39     0.000013       0.9950    1.0173    0.9880
 -169.94  132.24   64.53     0.000771       0.9962    1.0157    0.9884
    7.95   39.54  124.47     0.001812       0.9981    1.0136    0.9885
    4.99   34.61  137.74     0.002644       1.0005    1.0112    0.9884
    1.67   32.39  161.21     0.011943       1.0027    1.0091    0.9884
 -178.31   91.66   82.60     0.000150       0.9939    1.0197    0.9867
 -167.35  108.30   80.63     0.000373       0.9932    1.0188    0.9883
 -165.12  123.61   78.17     0.000114       0.9934    1.0177    0.9892
   13.90   38.17  108.02     0.000634       0.9946    1.0160    0.9896
   10.43   27.13  118.59     0.001322       0.9969    1.0138    0.9895
    6.27   22.10  133.12     0.002264       0.9998    1.0111    0.9893
    2.00   20.15  -21.90     0.013377       1.0024    1.0086    0.9892
 -178.13   90.69   87.62     0.000055       0.9937    1.0198    0.9868
 -174.14   91.87   87.53     0.000747       0.9934    1.0197    0.9871
 -169.70   93.79   87.35     0.000957       0.9930    1.0196    0.9878
 -164.74   98.17   87.08     0.000289       0.9924    1.0190    0.9889
 -160.04  117.44   86.37     0.000316       0.9920    1.0179    0.9904
   17.72   18.82  101.32     0.000661       0.9933    1.0162    0.9907
   11.95    9.95  114.89     0.000822       0.9961    1.0138    0.9902
    6.53    7.57  -49.05     0.002160       0.9993    1.0110    0.9898
    1.69    6.81  -23.33     0.013719       1.0022    1.0083    0.9896
 -179.88   90.27 -166.85     0.000148       1.0040    1.0119    0.9843
 -179.91   90.92 -167.23     0.000670       1.0041    1.0119    0.9843
 -179.94   91.55 -167.97     0.000141       1.0041    1.0119    0.9843
 -179.94   93.38 -174.34     0.000164       1.0043    1.0117    0.9842
 -179.91   93.61 -176.59     0.000938       1.0043    1.0117    0.9842
 -179.88   93.73 -178.96     0.000156       1.0043    1.0117    0.9842
 -179.82   90.88 -146.64     0.000361       1.0025    1.0133    0.9844
 -179.59   94.68 -148.81     0.000311       1.0028    1.0130    0.9844
 -179.54   96.42 -151.04     0.000391       1.0030    1.0128    0.9844
 -179.53   97.97 -154.13     0.000009       1.0033    1.0125    0.9844
 -179.59  100.30 -163.34     0.000529       1.0038    1.0119    0.9845
 -179.68  101.01 -169.54     0.002301       1.0041    1.0117    0.9845
 -179.81  101.38 -176.54     0.000411       1.0042    1.0115    0.9845
 -178.70  100.56 -138.47     0.000221       1.0013    1.0142    0.9848
 -178.63  103.22 -142.06     0.000137       1.0018    1.0136    0.9848
 -178.69  105.52 -146.99     0.000661       1.0024    1.0129    0.9849
 -178.89  107.35 -153.69     0.001048       1.0031    1.0122    0.9849
 -179.21  108.64 -162.67     0.002586       1.0036    1.0116    0.9849
 -179.68  109.30 -173.98     0.000679       1.0040    1.0113    0.9850
 -177.41  104.40   51.10     0.000331       0.9994    1.0155    0.9853
 -177.23  108.32   47.33     0.000631       1.0001    1.0147    0.9854
 -177.37  111.81   42.05     0.001335       1.0010    1.0137    0.9855
 -177.81  114.64   34.65     0.001300       1.0020    1.0126    0.9855
 -178.54  116.65 -156.01     0.001880       1.0030    1.0116    0.9856
 -179.46  117.68 -171.22     0.000899       1.0037    1.0108    0.9856
 -179.23   92.30   64.18     0.000033       0.9968    1.0180    0.9855
 -175.29  113.19   55.38     0.000943       0.9984    1.0157    0.9861
 -175.52  118.21   49.90     0.001337       0.9995    1.0145    0.9863
 -176.33  122.34   42.09     0.001027       1.0008    1.0130    0.9864
 -177.60  125.24   30.42     0.000950       1.0023    1.0114    0.9864
 -179.16  126.71 -168.15     0.000961       1.0034    1.0103    0.9865
 -174.79  103.38   69.01     0.000307       0.9956    1.0183    0.9863
 -173.33  110.19   66.64     0.000237       0.9959    1.0177    0.9866
 -172.70  117.68   62.89     0.000624       0.9966    1.0166    0.9870
 -173.08  124.89   57.24     0.000641       0.9978    1.0151    0.9872
 -174.41  130.75   48.98     0.000593       0.9995    1.0133    0.9874
    3.59   45.31  143.43     0.000308       1.0014    1.0113    0.9874
    1.21   43.38  -15.23     0.000803       1.0030    1.0097    0.9874
 -178.59   92.19   77.16     0.000164       0.9945    1.0194    0.9863
 -175.66   96.89   76.67     0.000528       0.9945    1.0193    0.9865
 -170.52  111.01   73.75     0.000449       0.9944    1.0184    0.9874
 -169.36  121.47   70.39     0.000041       0.9950    1.0173    0.9880
    7.90   39.51  124.51     0.000015       0.9981    1.0136    0.9885
    1.60   32.38  161.26     0.000474       1.0027    1.0091    0.9884
 -167.35  108.33   80.64     0.000190       0.9932    1.0188    0.9883
 -165.13  123.65   78.17     0.000246       0.9934    1.0177    0.9892
   13.88   38.14  108.03     0.000069       0.9946    1.0160    0.9896
    6.14   22.07  133.23     0.000166       0.9998    1.0111    0.9893
    1.86   20.13  -21.78     0.000284       1.0024    1.0086    0.9891
 -178.13   90.78   87.62     0.000010       0.9937    1.0198    0.9868
 -174.14   91.96   87.54     0.001046       0.9934    1.0198    0.9871
 -169.70   93.88   87.36     0.000838       0.9930    1.0196    0.9878
    6.49    7.56  -49.05     0.000197       0.9993    1.0110    0.9898
    1.24    6.79  -22.90     0.000010       1.0022    1.0083    0.9896
 -179.92   90.27 -166.85     0.000654       1.0040    1.0119    0.9843
 -179.95   90.93 -167.22     0.000143       1.0041    1.0119    0.9843
 -179.93   93.05 -172.30     0.000163       1.0042    1.0117    0.9842
 -179.89   93.38 -174.34     0.000899       1.0043    1.0117    0.9842
 -179.86   93.61 -176.59     0.000151       1.0043    1.0117    0.9842
 -179.72   92.83 -147.36     0.000321       1.0026    1.0132    0.9844
 -179.63   94.69 -148.80     0.000403       1.0028    1.0130    0.9844
 -179.56   96.42 -151.02     0.000049       1.0030    1.0128    0.9844
 -179.52   97.96 -154.12     0.000217       1.0033    1.0125    0.9844
 -179.51   99.27 -158.20     0.000481       1.0036    1.0122    0.9844
 -179.55  100.30 -163.36     0.001522       1.0038    1.0119    0.9845
 -179.65  101.01 -169.55     0.000317       1.0041    1.0117    0.9845
 -178.94   97.66 -135.95     0.000283       1.0009    1.0146    0.9847
 -178.71  100.56 -138.45     0.000259       1.0013    1.0142    0.9848
 -178.62  103.21 -142.04     0.000818       1.0018    1.0136    0.9848
 -178.66  105.51 -146.99     0.000833       1.0024    1.0129    0.9849
 -178.86  107.34 -153.71     0.000565       1.0031    1.0122    0.9849
 -179.22  108.64 -162.67     0.000375       1.0036    1.0116    0.9849
 -177.90  100.28   53.70     0.000404       0.9989    1.0161    0.9852
 -177.42  104.41   51.10     0.000840       0.9994    1.0155    0.9853
 -177.23  108.32   47.33     0.001101       1.0001    1.0147    0.9854
 -177.35  111.80   42.06     0.000734       1.0010    1.0137    0.9855
 -178.55  116.65 -156.02     0.000427       1.0030    1.0115    0.9856
 -179.21   92.27   64.18     0.000070       0.9968    1.0180    0.9855
 -176.50  102.31   61.80     0.000011       0.9971    1.0174    0.9857
 -175.64  107.75   59.21     0.000551       0.9976    1.0167    0.9859
 -175.28  113.19   55.38     0.000443       0.9984    1.0157    0.9861
 -177.62  125.24   30.41     0.000399       1.0023    1.0114    0.9865
 -176.72   97.50   70.42     0.000299       0.9955    1.0187    0.9861
 -174.78  103.36   69.01     0.000252       0.9956    1.0183    0.9863
 -173.33  110.19   66.64     0.000139       0.9959    1.0177    0.9866
    3.55   45.30  143.45     0.000463       1.0014    1.0113    0.9874
 -178.57   92.12   77.16     0.000458       0.9945    1.0194    0.9863
 -175.64   96.83   76.67     0.000103       0.9945    1.0193    0.9865
    4.88   34.57  137.83     0.000404       1.0005    1.0112    0.9884
    1.54   32.37  161.29     0.000613       1.0027    1.0091    0.9884
 -174.70   94.94   82.32     0.000210       0.9938    1.0196    0.9869
 -170.95   99.86   81.72     0.000105       0.9935    1.0194    0.9874
   13.89   38.15  108.01     0.000034       0.9946    1.0160    0.9896
    6.17   22.07  133.17     0.000358       0.9998    1.0111    0.9893
    1.82   20.12  -21.77     0.001310       1.0024    1.0086    0.9891
 -178.12   90.68   87.62     0.000080       0.9937    1.0198    0.9868
 -174.13   91.96   87.54     0.000536       0.9935    1.0198    0.9871
 -169.69   93.92   87.36     0.000109       0.9930    1.0196    0.9877
    6.82    7.59  -49.41     0.000039       0.9993    1.0110    0.9898
    1.66    6.80  -23.37     0.001490       1.0022    1.0083    0.9896
  179.96   90.28  166.52     0.000145       1.0040    1.0119    0.9843
 -179.94   92.64  170.23     0.000161       1.0042    1.0118    0.9842
 -179.98   93.06  171.97     0.000850       1.0042    1.0117    0.9842
  179.98   93.39  174.00     0.000146       1.0043    1.0117    0.9842
  179.88   90.92  146.43     0.000338       1.0025    1.0133    0.9844
  179.75   92.85  147.15     0.000403       1.0026    1.0132    0.9844
  179.66   94.71  148.61     0.000062       1.0027    1.0130    0.9844
  179.62   96.45  150.83     0.000355       1.0030    1.0128    0.9844
  179.62   98.00  153.92     0.000441       1.0032    1.0125    0.9844
  179.63   99.30  157.95     0.000782       1.0035    1.0122    0.9844
  179.67  100.32  163.03     0.000271       1.0038    1.0119    0.9845
  179.30   94.62  134.20     0.000388       1.0006    1.0149    0.9847
  178.97   97.68  135.81     0.000432       1.0009    1.0146    0.9848
  178.77  100.60  138.32     0.000764       1.0013    1.0142    0.9848
  178.72  103.26  141.90     0.000633       1.0018    1.0136    0.9848
  179.00  107.38  153.44     0.000402       1.0031    1.0122    0.9849
  178.63   96.13  124.54     0.000389       0.9986    1.0165    0.9851
  177.93  100.31  126.19     0.000702       0.9989    1.0161    0.9852
  177.48  104.44  128.79     0.000649       0.9994    1.0155    0.9853
  177.96  114.69  145.15     0.000440       1.0020    1.0126    0.9855
  178.65  116.67  155.70     0.000541       1.0030    1.0116    0.9856
  177.74   97.16  116.54     0.000063       0.9969    1.0178    0.9856
  176.53  102.33  118.13     0.000250       0.9971    1.0174    0.9858
  175.70  107.77  120.71     0.000058       0.9976    1.0167    0.9859
  177.70  125.26  149.32     0.000854       1.0023    1.0115    0.9864
  178.84   92.30  108.93     0.000065       0.9955    1.0188    0.9860
  176.70   97.45  109.57     0.000089       0.9955    1.0187    0.9861
   -3.51   45.31   36.79     0.000806       1.0014    1.0113    0.9874
   -1.20   43.38   15.63     0.000123       1.0030    1.0097    0.9874
  178.50   91.99  102.88     0.000250       0.9945    1.0194    0.9864
   -4.89   34.61   42.42     0.000444       1.0005    1.0112    0.9884
   -1.63   32.39   19.15     0.000677       1.0027    1.0091    0.9884
  178.23   91.31   97.47     0.000006       0.9940    1.0196    0.9867
  174.67   94.71   97.75     0.000388       0.9938    1.0196    0.9869
  170.95   99.62   98.34     0.000412       0.9935    1.0193    0.9875
   -6.19   22.12   47.04     0.000165       0.9998    1.0111    0.9893
   -1.96   20.15   22.26     0.001189       1.0024    1.0086    0.9891
  178.08   90.36   92.47     0.000200       0.9937    1.0197    0.9869
  160.15  117.60   93.70     0.000182       0.9920    1.0179    0.9904
   -6.62    7.62   49.36     0.000021       0.9993    1.0110    0.9898
   -1.74    6.82   23.74     0.001447       1.0022    1.0083    0.9896
 -179.93   92.14  168.78     0.000159       1.0041    1.0118    0.9842
 -179.98   92.64  170.21     0.000795       1.0042    1.0118    0.9842
  179.97   93.06  171.97     0.000143       1.0042    1.0117    0.9842
  179.91   90.93  146.45     0.000408       1.0025    1.0133    0.9844
  179.79   92.87  147.17     0.000067       1.0026    1.0132    0.9844
  179.71   94.73  148.61     0.000416       1.0027    1.0130    0.9844
  179.65   96.46  150.83     0.000419       1.0030    1.0128    0.9844
  179.60   97.99  153.89     0.000260       1.0033    1.0125    0.9844
  179.58   99.29  157.92     0.000273       1.0036    1.0122    0.9844
  179.75   91.52  133.43     0.000466       1.0005    1.0151    0.9847
  179.34   94.66  134.21     0.000546       1.0006    1.0149    0.9847
  179.02   97.72  135.82     0.000651       1.0009    1.0146    0.9848
  178.81  100.62  138.32     0.000354       1.0013    1.0142    0.9848
  178.76  105.54  146.78     0.000392       1.0024    1.0129    0.9848
  178.95  107.36  153.41     0.000555       1.0031    1.0122    0.9849
  179.51   92.00  123.75     0.000360       0.9985    1.0167    0.9851
  178.67   96.17  124.55     0.000493       0.9986    1.0165    0.9851
  177.98  100.36  126.20     0.000456       0.9989    1.0161    0.9852
  177.90  114.67  145.12     0.000629       1.0020    1.0126    0.9855
  178.60  116.65  155.69     0.000219       1.0030    1.0116    0.9856
  177.79   97.22  116.56     0.000192       0.9969    1.0178    0.9856
  176.43  122.37  137.73     0.000068       1.0008    1.0130    0.9864
  177.64  125.24  149.30     0.000626       1.0023    1.0115    0.9864
  178.86   92.35  108.94     0.000161       0.9955    1.0188    0.9860
  176.74   97.53  109.58     0.000007       0.9955    1.0187    0.9861
   -3.57   45.32   36.83     0.000486       1.0014    1.0113    0.9874
  169.51  121.59  109.62     0.000111       0.9950    1.0172    0.9880
   -4.97   34.63   42.49     0.000295       1.0005    1.0112    0.9884
  178.24   91.39   97.47     0.000338       0.9940    1.0196    0.9867
  174.69   94.82   97.75     0.000381       0.9938    1.0196    0.9869
  170.98   99.78   98.34     0.000463       0.9935    1.0193    0.9875
  165.28  123.86  101.89     0.000146       0.9934    1.0177    0.9892
   -6.31   22.15   47.16     0.000116       0.9998    1.0111    0.9893
   -2.10   20.16   22.38     0.000001       1.0024    1.0086    0.9891
  178.08   90.44   92.47     0.000189       0.9937    1.0197    0.9869
   -7.01    7.65   49.75     0.000144       0.9993    1.0110    0.9898
   -2.12    6.83   24.12     0.000088       1.0022    1.0083    0.9896
 -179.93   91.57  167.66     0.000155       1.0041    1.0119    0.9842
 -179.98   92.13  168.75     0.000744       1.0041    1.0118    0.9842
  179.97   92.63  170.20     0.000141       1.0042    1.0118    0.9842
 -180.00   93.72  178.62     0.000160       1.0043    1.0117    0.9843
  179.96   90.95  146.47     0.000070       1.0025    1.0133    0.9844
  179.84   92.89  147.17     0.000429       1.0026    1.0132    0.9844
  179.74   94.74  148.60     0.000402       1.0027    1.0131    0.9844
  179.55   97.98  153.86     0.000291       1.0033    1.0125    0.9844
  179.54   99.28  157.91     0.000157       1.0035    1.0122    0.9844
  179.91  101.38  176.17     0.000507       1.0042    1.0115    0.9845
  179.79   91.55  133.44     0.000587       1.0005    1.0151    0.9847
  179.39   94.69  134.22     0.000569       1.0006    1.0149    0.9847
  179.06   97.74  135.81     0.000072       1.0009    1.0146    0.9847
  178.68  103.25  141.86     0.000199       1.0018    1.0136    0.9848
  178.71  105.52  146.75     0.000574       1.0024    1.0129    0.9849
  178.91  107.35  153.41     0.000109       1.0031    1.0122    0.9849
  179.74  109.30  173.60     0.001149       1.0040    1.0113    0.9850
  179.56   92.05  123.77     0.000318       0.9985    1.0167    0.9851
  178.72   96.22  124.56     0.000456       0.9986    1.0165    0.9851
  177.41  111.82  137.76     0.000062       1.0010    1.0137    0.9855
  177.85  114.64  145.10     0.000321       1.0020    1.0126    0.9855
  179.49  117.68  170.82     0.002138       1.0037    1.0108    0.9856
  177.83   97.29  116.56     0.000003       0.9969    1.0178    0.9856
  176.62  102.46  118.14     0.000018       0.9972    1.0174    0.9857
  176.36  122.33  137.70     0.000138       1.0008    1.0130    0.9864
  177.60  125.22  149.28     0.000443       1.0023    1.0115    0.9864
  179.13  126.71  167.74     0.003654       1.0034    1.0103    0.9865
  178.90   92.44  108.94     0.000146       0.9955    1.0188    0.9860
  173.17  124.91  122.64     0.000085       0.9978    1.0152    0.9872
  174.42  130.72  130.83     0.000034       0.9995    1.0133    0.9873
   -3.65   45.34   36.86     0.000972       1.0014    1.0113    0.9874
   -1.32   43.39   15.67     0.005571       1.0030    1.0097    0.9874
  172.92  102.98  104.41     0.000174       0.9944    1.0190    0.9870
  170.04  132.27  115.39     0.000208       0.9962    1.0157    0.9883
   -7.96   39.59   55.71     0.000323       0.9982    1.0136    0.9884
   -5.09   34.66   42.57     0.001533       1.0005    1.0112    0.9884
   -1.84   32.40   19.28     0.008002       1.0027    1.0091    0.9883
  178.26   91.52   97.47     0.000394       0.9940    1.0196    0.9867
  174.71   94.98   97.75     0.000054       0.9938    1.0196    0.9869
  167.46  108.57   99.41     0.000011       0.9932    1.0188    0.9883
  -13.81   38.16   72.01     0.000060       0.9946    1.0160    0.9895
  -10.54   27.27   61.68     0.000508       0.9969    1.0138    0.9895
   -6.51   22.19   47.32     0.001875       0.9998    1.0111    0.9893
   -2.30   20.17   22.53     0.010560       1.0024    1.0086    0.9891
  178.09   90.58   92.47     0.000147       0.9937    1.0198    0.9869
  164.80   98.60   92.98     0.000106       0.9924    1.0190    0.9889
  -17.84   19.19   78.87     0.000287       0.9934    1.0162    0.9906
  -12.66   10.24   65.95     0.000658       0.9961    1.0138    0.9902
   -7.61    7.71   50.33     0.002033       0.9993    1.0110    0.9898
   -2.71    6.84   24.69     0.012711       1.0022    1.0083    0.9896
 -179.91   90.95  166.91     0.000152       1.0041    1.0119    0.9842
 -179.97   91.56  167.64     0.000701       1.0041    1.0119    0.9842
  179.97   92.13  168.74     0.000140       1.0041    1.0118    0.9842
  179.98   93.61  176.25     0.000162       1.0042    1.0117    0.9843
 -179.96   93.73  178.62     0.000959       1.0043    1.0117    0.9843
 -179.99   90.97  146.47     0.000420       1.0025    1.0133    0.9844
  179.87   92.90  147.17     0.000384       1.0026    1.0132    0.9844
  179.58   96.44  150.77     0.000303       1.0030    1.0128    0.9844
  179.50   97.96  153.85     0.000326       1.0033    1.0125    0.9844
  179.75  101.01  169.20     0.000549       1.0040    1.0117    0.9845
  179.95  101.38  176.17     0.002815       1.0042    1.0115    0.9845
  179.84   91.59  133.44     0.000518       1.0005    1.0151    0.9847
  178.62  103.22  141.84     0.000329       1.0018    1.0136    0.9848
  178.67  105.50  146.75     0.000157       1.0024    1.0129    0.9849
  178.90  107.34  153.42     0.000175       1.0030    1.0122    0.9849
  179.29  108.64  162.34     0.001264       1.0036    1.0116    0.9850
  179.77  109.30  173.61     0.004569       1.0040    1.0113    0.9850
  179.61   92.10  123.77     0.000401       0.9985    1.0167    0.9851
  177.25  108.32  132.50     0.000104       1.0001    1.0147    0.9854
  177.36  111.79  137.74     0.000231       1.0010    1.0137    0.9855
  177.82  114.63  145.11     0.000898       1.0020    1.0126    0.9856
  178.57  116.64  155.70     0.002068       1.0030    1.0116    0.9856
  179.51  117.68  170.83     0.006236       1.0037    1.0108    0.9856
  175.33  113.20  124.48     0.000100       0.9984    1.0157    0.9861
  175.53  118.18  129.92     0.000539       0.9995    1.0145    0.9863
  176.32  122.31  137.69     0.001585       1.0008    1.0130    0.9864
  177.59  125.21  149.29     0.002735       1.0023    1.0115    0.9865
  179.14  126.71  167.76     0.008053       1.0034    1.0103    0.9865
  173.45  110.34  113.31     0.000066       0.9960    1.0177    0.9866
  172.76  117.70  117.00     0.000018       0.9967    1.0166    0.9870
  173.09  124.83  122.60     0.001002       0.9978    1.0151    0.9872
  174.36  130.68  130.80     0.001955       0.9995    1.0133    0.9874
   -3.67   45.36   36.87     0.002990       1.0014    1.0113    0.9874
   -1.32   43.40   15.66     0.009874       1.0030    1.0097    0.9874
  175.71   97.05  103.37     0.000307       0.9945    1.0193    0.9866
  172.93  103.06  104.40     0.000114       0.9944    1.0190    0.9869
  170.63  111.20  106.26     0.000314       0.9945    1.0183    0.9875
  169.44  121.54  109.58     0.000013       0.9950    1.0173    0.9880
  169.94  132.16  115.33     0.000771       0.9962    1.0157    0.9883
   -8.05   39.65   55.77     0.001812       0.9981    1.0136    0.9884
   -5.15   34.69   42.60     0.002644       1.0005    1.0112    0.9884
   -1.86   32.41   19.28     0.011943       1.0027    1.0091    0.9884
  178.28   91.66   97.47     0.000150       0.9940    1.0197    0.9867
  167.46  108.66   99.40     0.000373       0.9932    1.0188    0.9883
  165.23  123.84  101.85     0.000114       0.9934    1.0177    0.9891
  -13.94   38.34   72.10     0.000634       0.9947    1.0160    0.9895
  -10.72   27.37   61.81     0.001322       0.9969    1.0138    0.9895
   -6.69   22.24   47.45     0.002264       0.9998    1.0111    0.9893
   -2.48   20.18   22.65     0.013377       1.0024    1.0086    0.9891
  178.09   90.73   92.47     0.000055       0.9937    1.0198    0.9869
  174.12   92.05   92.54     0.000747       0.9934    1.0197    0.9871
  169.71   94.14   92.71     0.000957       0.9930    1.0195    0.9878
  164.79   98.86   92.97     0.000289       0.9924    1.0190    0.9889
  160.17  118.64   93.68     0.000316       0.9920    1.0179    0.9903
  -18.16   19.61   79.16     0.000661       0.9934    1.0162    0.9906
  -13.21   10.40   66.46     0.000822       0.9961    1.0139    0.9902
   -8.24    7.77   50.91     0.002160       0.9993    1.0110    0.9898
   -3.33    6.86   25.25     0.013719       1.0022    1.0083    0.9896
 -179.89   90.30  166.53     0.000148       1.0041    1.0119    0.9842
 -179.96   90.94  166.89     0.000670       1.0041    1.0119    0.9842
  179.98   91.56  167.63     0.000141       1.0041    1.0119    0.9842
  179.97   93.38  174.02     0.000164       1.0042    1.0117    0.9843
 -179.97   93.61  176.26     0.000938       1.0042    1.0117    0.9843
 -179.91   93.73  178.62     0.000156       1.0043    1.0117    0.9843
 -179.96   90.98  146.46     0.000361       1.0025    1.0133    0.9844
  179.66   94.72  148.54     0.000311       1.0028    1.0130    0.9844
  179.53   96.42  150.76     0.000391       1.0030    1.0128    0.9844
  179.48   97.96  153.86     0.000009       1.0032    1.0125    0.9844
  179.62  100.30  163.06     0.000529       1.0038    1.0119    0.9845
  179.79  101.02  169.21     0.002301       1.0040    1.0117    0.9845
  179.99  101.38  176.17     0.000411       1.0042    1.0115    0.9845
  178.70  100.56  138.26     0.000221       1.0013    1.0142    0.9848
  178.59  103.20  141.84     0.000137       1.0018    1.0136    0.9848
  178.66  105.49  146.77     0.000661       1.0024    1.0129    0.9849
  178.92  107.34  153.44     0.001048       1.0030    1.0122    0.9849
  179.32  108.64  162.35     0.002586       1.0036    1.0116    0.9850
  179.81  109.31  173.61     0.000679       1.0040    1.0113    0.9850
  177.43  104.41  128.74     0.000331       0.9994    1.0155    0.9853
  177.20  108.29  132.49     0.000631       1.0001    1.0147    0.9854
  177.34  111.77  137.75     0.001335       1.0010    1.0137    0.9855
  177.83  114.62  145.12     0.001300       1.0020    1.0126    0.9856
  178.60  116.64  155.72     0.001880       1.0030    1.0116    0.9856
  179.54  117.68  170.84     0.000899       1.0037    1.0108    0.9856
  179.34   92.51  115.81     0.000033       0.9968    1.0180    0.9855
  175.27  113.14  124.46     0.000943       0.9984    1.0157    0.9861
  175.50  118.15  129.92     0.001337       0.9994    1.0145    0.9863
  176.32  122.30  137.70     0.001027       1.0008    1.0130    0.9864
  177.61  125.21  149.31     0.000950       1.0022    1.0115    0.9865
  179.18  126.71  167.77     0.000961       1.0034    1.0103    0.9865
  174.86  103.52  110.95     0.000307       0.9956    1.0183    0.9863
  173.38  110.21  113.28     0.000237       0.9960    1.0176    0.9866
  172.70  117.60  116.97     0.000624       0.9967    1.0166    0.9870
  173.04  124.77  122.58     0.000641       0.9978    1.0151    0.9872
  174.35  130.66  130.80     0.000593       0.9995    1.0133    0.9874
   -3.66   45.37   36.84     0.000308       1.0014    1.0113    0.9874
   -1.28   43.40   15.64     0.000803       1.0030    1.0097    0.9874
  178.61   92.38  102.89     0.000164       0.9945    1.0194    0.9864
  175.71   97.11  103.37     0.000528       0.9945    1.0193    0.9865
  170.57  111.03  106.23     0.000449       0.9945    1.0183    0.9874
  169.37  121.37  109.54     0.000041       0.9950    1.0172    0.9880
   -8.08   39.69   55.78     0.000015       0.9981    1.0136    0.9884
   -1.82   32.41   19.24     0.000474       1.0027    1.0091    0.9884
  167.41  108.44   99.39     0.000190       0.9932    1.0188    0.9883
  165.15  123.54  101.81     0.000246       0.9934    1.0177    0.9891
  -14.02   38.49   72.16     0.000069       0.9946    1.0160    0.9896
   -6.67   22.24   47.42     0.000166       0.9997    1.0111    0.9893
   -2.42   20.19   22.59     0.000284       1.0024    1.0086    0.9891
  178.10   90.84   92.46     0.000010       0.9937    1.0198    0.9868
  174.12   92.09   92.54     0.001046       0.9935    1.0197    0.9871
  169.70   94.10   92.71     0.000838       0.9930    1.0195    0.9878
   -8.24    7.78   50.89     0.000197       0.9993    1.0110    0.9898
   -3.49    6.87   25.36     0.000010       1.0022    1.0083    0.9896
 -179.94   90.30  166.51     0.000654       1.0041    1.0119    0.9842
  179.99   90.94  166.87     0.000143       1.0041    1.0119    0.9842
  179.96   93.05  171.99     0.000163       1.0042    1.0117    0.9843
 -179.99   93.39  174.02     0.000899       1.0042    1.0117    0.9843
 -179.93   93.61  176.26     0.000151       1.0043    1.0117    0.9843
  179.79   92.87  147.10     0.000321       1.0026    1.0132    0.9844
  179.61   94.70  148.54     0.000403       1.0028    1.0130    0.9844
  179.50   96.41  150.77     0.000049       1.0030    1.0128    0.9844
  179.48   97.95  153.88     0.000217       1.0032    1.0125    0.9845
  179.53   99.27  157.96     0.000481       1.0035    1.0122    0.9845
  179.66  100.31  163.07     0.001522       1.0038    1.0119    0.9845
  179.83  101.02  169.21     0.000317       1.0040    1.0117    0.9845
  178.94   97.67  135.75     0.000283       1.0009    1.0146    0.9847
  178.67  100.54  138.26     0.000259       1.0013    1.0142    0.9848
  178.58  103.19  141.85     0.000818       1.0018    1.0136    0.9848
  178.68  105.50  146.79     0.000833       1.0024    1.0129    0.9849
  178.95  107.35  153.46     0.000565       1.0030    1.0122    0.9849
  179.36  108.65  162.36     0.000375       1.0036    1.0116    0.9850
  177.92  100.31  126.14     0.000404       0.9990    1.0161    0.9852
  177.39  104.37  128.73     0.000840       0.9994    1.0155    0.9853
  177.19  108.27  132.50     0.001101       1.0001    1.0147    0.9854
  177.35  111.77  137.77     0.000734       1.0010    1.0137    0.9855
  178.64  116.65  155.74     0.000427       1.0030    1.0116    0.9856
  179.33   92.49  115.79     0.000070       0.9968    1.0180    0.9855
  176.53  102.35  118.10     0.000011       0.9972    1.0174    0.9857
  175.62  107.69  120.65     0.000551       0.9976    1.0167    0.9859
  175.24  113.10  124.46     0.000443       0.9984    1.0157    0.9861
  177.65  125.22  149.34     0.000399       1.0022    1.0115    0.9865
  176.78   97.64  109.56     0.000299       0.9955    1.0187    0.9861
  174.80  103.40  110.94     0.000252       0.9956    1.0183    0.9863
  173.32  110.11  113.27     0.000139       0.9960    1.0176    0.9866
   -3.61   45.36   36.81     0.000463       1.0014    1.0113    0.9874
  178.60   92.34  102.88     0.000458       0.9946    1.0194    0.9863
  175.67   96.96  103.35     0.000103       0.9945    1.0193    0.9865
   -5.08   34.68   42.51     0.000404       1.0005    1.0112    0.9884
   -1.75   32.41   19.18     0.000613       1.0027    1.0091    0.9884
  174.70   95.02   97.74     0.000210       0.9938    1.0196    0.9869
  170.96   99.84   98.32     0.000105       0.9935    1.0193    0.9874
  -14.03   38.54   72.15     0.000034       0.9946    1.0160    0.9896
   -6.55   22.22   47.30     0.000358       0.9997    1.0111    0.9893
   -2.28   20.18   22.46     0.001310       1.0024    1.0086    0.9892
  178.09   90.72   92.46     0.000080       0.9937    1.0198    0.9868
  174.11   91.94   92.54     0.000536       0.9935    1.0197    0.9871
  169.69   93.90   92.71     0.000109       0.9930    1.0195    0.9878
   -7.81    7.74   50.46     0.000039       0.9993    1.0110    0.9898
   -3.03    6.86   24.90     0.001490       1.0022    1.0083    0.9896
  179.99   89.63  166.50     0.000145       1.0041    1.0119    0.9842
 -179.84   87.29  170.25     0.000161       1.0041    1.0118    0.9843
 -179.89   86.86  172.01     0.000850       1.0042    1.0117    0.9843
 -179.94   86.53  174.04     0.000146       1.0042    1.0117    0.9843
 -179.94   88.98  146.39     0.000338       1.0025    1.0133    0.9844
 -179.74   87.07  147.10     0.000403       1.0026    1.0132    0.9844
 -179.56   85.24  148.56     0.000062       1.0028    1.0130    0.9844
 -179.42   83.53  150.82     0.000355       1.0030    1.0128    0.9844
 -179.40   81.99  153.95     0.000441       1.0032    1.0125    0.9845
 -179.47   80.67  158.01     0.000782       1.0035    1.0122    0.9845
 -179.61   79.62  163.11     0.000271       1.0038    1.0119    0.9845
 -179.30   85.30  134.16     0.000388       1.0006    1.0149    0.9847
 -178.88   82.30  135.77     0.000432       1.0009    1.0146    0.9847
 -178.59   79.43  138.32     0.000764       1.0013    1.0142    0.9848
 -178.50   76.78  141.93     0.000633       1.0018    1.0136    0.9848
 -178.93   72.60  153.52     0.000402       1.0030    1.0122    0.9849
 -178.64   83.79  124.51     0.000389       0.9987    1.0165    0.9851
 -177.85   79.70  126.16     0.000702       0.9990    1.0161    0.9852
 -177.31   75.64  128.79     0.000649       0.9994    1.0155    0.9853
 -177.86   65.34  145.23     0.000440       1.0020    1.0126    0.9856
 -178.66   63.32  155.81     0.000541       1.0030    1.0115    0.9856
 -177.77   82.75  116.54     0.000063       0.9969    1.0178    0.9856
 -176.47   77.69  118.13     0.000250       0.9972    1.0174    0.9857
 -175.54   72.35  120.71     0.000058       0.9976    1.0167    0.9859
 -177.71   54.77  149.45     0.000854       1.0023    1.0114    0.9865
 -178.92   87.48  108.92     0.000065       0.9955    1.0188    0.9859
 -176.74   82.42  109.58     0.000089       0.9955    1.0187    0.9861
 -176.50   45.36  -36.63     0.000806       1.0014    1.0113    0.9874
 -178.89   43.43  164.59     0.000123       1.0030    1.0097    0.9874
 -178.58   87.75  102.88     0.000250       0.9946    1.0194    0.9863
 -175.12   34.69  -42.26     0.000444       1.0005    1.0112    0.9884
 -178.47   32.47  -18.88     0.000677       1.0027    1.0091    0.9884
 -178.29   88.39   97.47     0.000006       0.9940    1.0196    0.9867
 -174.71   85.05   97.77     0.000388       0.9938    1.0196    0.9869
 -170.95   80.24   98.37     0.000412       0.9935    1.0194    0.9874
 -173.80   22.24  -46.89     0.000165       0.9998    1.0111    0.9893
 -178.13   20.26  158.05     0.001189       1.0024    1.0086    0.9891
 -178.12   89.32   92.47     0.000200       0.9937    1.0198    0.9868
 -160.04   62.99   93.74     0.000182       0.9920    1.0179    0.9903
 -173.21    7.77  130.62     0.000021       0.9993    1.0110    0.9898
 -178.29    6.95  156.53     0.001447       1.0022    1.0083    0.9896
 -179.84   87.80  168.79     0.000159       1.0041    1.0118    0.9843
 -179.88   87.29  170.25     0.000795       1.0041    1.0118    0.9843
 -179.94   86.86  172.01     0.000143       1.0042    1.0117    0.9843
 -179.89   89.00  146.39     0.000408       1.0025    1.0133    0.9844
 -179.68   87.09  147.12     0.000067       1.0026    1.0132    0.9844
 -179.51   85.26  148.60     0.000416       1.0028    1.0130    0.9844
 -179.43   83.53  150.85     0.000419       1.0030    1.0128    0.9844
 -179.45   81.98  153.95     0.000260       1.0032    1.0125    0.9845
 -179.53   80.65  158.00     0.000273       1.0035    1.0122    0.9845
 -179.74   88.41  133.38     0.000466       1.0005    1.0151    0.9847
 -179.24   85.34  134.18     0.000546       1.0006    1.0149    0.9847
 -178.83   82.33  135.81     0.000651       1.0009    1.0146    0.9847
 -178.60   79.43  138.34     0.000354       1.0013    1.0142    0.9848
 -178.69   74.44  146.85     0.000392       1.0024    1.0129    0.9849
 -178.98   72.58  153.50     0.000555       1.0030    1.0122    0.9849
 -179.51   87.93  123.72     0.000360       0.9985    1.0167    0.9850
 -178.58   83.85  124.53     0.000493       0.9987    1.0165    0.9851
 -177.80   79.75  126.19     0.000456       0.9990    1.0161    0.9852
 -177.92   65.32  145.21     0.000629       1.0020    1.0126    0.9856
 -178.69   63.31  155.79     0.000219       1.0030    1.0115    0.9856
 -177.71   82.83  116.55     0.000192       0.9969    1.0178    0.9856
 -176.45   57.65  137.84     0.000068       1.0008    1.0130    0.9864
 -177.74   54.75  149.43     0.000626       1.0023    1.0114    0.9865
 -178.88   87.57  108.92     0.000161       0.9955    1.0188    0.9859
 -176.68   82.53  109.59     0.000007       0.9955    1.0187    0.9861
 -176.54   45.34  -36.65     0.000486       1.0014    1.0113    0.9874
 -169.36   58.71  109.65     0.000111       0.9950    1.0172    0.9880
 -175.15   34.68  -42.27     0.000295       1.0005    1.0112    0.9884
 -178.27   88.50   97.47     0.000338       0.9940    1.0196    0.9866
 -174.68   85.18   97.77     0.000381       0.9938    1.0196    0.9869
 -170.92   80.40   98.38     0.000463       0.9935    1.0194    0.9874
 -165.14   56.63  101.92     0.000146       0.9934    1.0177    0.9892
 -173.82   22.23  -46.91     0.000116       0.9998    1.0111    0.9893
 -178.08   20.26  157.97     0.000001       1.0024    1.0086    0.9891
 -178.12   89.41   92.47     0.000189       0.9937    1.0198    0.9868
 -173.15    7.78  130.53     0.000144       0.9993    1.0110    0.9898
 -178.07    6.95  156.28     0.000088       1.0022    1.0083    0.9896
 -179.85   88.37  167.68     0.000155       1.0041    1.0119    0.9843
 -179.89   87.80  168.79     0.000744       1.0041    1.0118    0.9843
 -179.93   87.29  170.24     0.000141       1.0041    1.0118    0.9843
 -179.98   86.19  178.63     0.000160       1.0043    1.0116    0.9842
 -179.84   89.02  146.42     0.000070       1.0025    1.0133    0.9844
 -179.63   87.11  147.17     0.000429       1.0026    1.0132    0.9844
 -179.52   85.26  148.62     0.000402       1.0027    1.0130    0.9844
 -179.50   81.96  153.94     0.000291       1.0032    1.0125    0.9845
 -179.57   80.64  157.98     0.000157       1.0035    1.0122    0.9845
 -179.92   78.54  176.20     0.000507       1.0042    1.0115    0.9845
 -179.68   88.46  133.40     0.000587       1.0005    1.0151    0.9847
 -179.19   85.37  134.22     0.000569       1.0006    1.0149    0.9847
 -178.85   82.32  135.83     0.000072       1.0009    1.0146    0.9847
 -178.62   76.73  141.93     0.000199       1.0018    1.0136    0.9849
 -178.74   74.42  146.83     0.000574       1.0024    1.0129    0.9849
 -179.00   72.58  153.47     0.000109       1.0031    1.0122    0.9849
 -179.78   70.63  173.66     0.001149       1.0040    1.0112    0.9849
 -179.45   88.00  123.74     0.000318       0.9985    1.0167    0.9850
 -178.53   83.90  124.56     0.000456       0.9987    1.0165    0.9851
 -177.45   68.15  137.84     0.000062       1.0010    1.0137    0.9855
 -177.95   65.30  145.19     0.000321       1.0020    1.0126    0.9856
 -179.55   62.28  170.91     0.002138       1.0037    1.0108    0.9856
 -177.66   82.90  116.57     0.000003       0.9969    1.0178    0.9856
 -176.44   77.74  118.16     0.000018       0.9972    1.0174    0.9857
 -176.47   57.63  137.82     0.000138       1.0008    1.0130    0.9864
 -177.73   54.75  149.39     0.000443       1.0023    1.0114    0.9865
 -179.23   53.29  167.87     0.003654       1.0034    1.0103    0.9865
 -178.83   87.69  108.93     0.000146       0.9955    1.0189    0.9859
 -173.19   55.12  122.75     0.000085       0.9978    1.0151    0.9873
 -174.55   49.26  130.98     0.000034       0.9995    1.0133    0.9874
 -176.52   45.34  -36.69     0.000972       1.0014    1.0113    0.9874
 -178.82   43.42  164.51     0.005571       1.0031    1.0097    0.9874
 -172.79   77.39  104.45     0.000174       0.9944    1.0190    0.9869
 -170.07   47.79  115.51     0.000208       0.9962    1.0156    0.9884
 -172.19   39.59  -55.51     0.000323       0.9982    1.0136    0.9884
 -175.12   34.68  -42.32     0.001533       1.0005    1.0112    0.9884
 -178.37   32.47  -19.00     0.008002       1.0027    1.0091    0.9883
 -178.25   88.64   97.47     0.000394       0.9940    1.0197    0.9866
 -174.65   85.33   97.78     0.000054       0.9938    1.0196    0.9869
 -167.36   71.91   99.47     0.000011       0.9932    1.0188    0.9883
 -166.23   38.27  -71.87     0.000060       0.9946    1.0160    0.9896
 -169.64   27.30  -61.42     0.000508       0.9969    1.0137    0.9895
 -173.74   22.25  -47.00     0.001875       0.9998    1.0111    0.9893
 -177.93   20.26  157.83     0.010560       1.0024    1.0086    0.9891
 -178.11   89.55   92.47     0.000147       0.9937    1.0198    0.9868
 -164.74   81.93   93.05     0.000106       0.9924    1.0190    0.9889
 -162.32   19.30  -78.63     0.000287       0.9934    1.0162    0.9907
 -167.76   10.30  -65.45     0.000658       0.9961    1.0138    0.9902
 -172.84    7.81  130.21     0.002033       0.9993    1.0110    0.9898
 -177.60    6.96  155.82     0.012711       1.0022    1.0083    0.9896
 -179.87   88.99  166.93     0.000152       1.0040    1.0119    0.9843
 -179.90   88.37  167.68     0.000701       1.0041    1.0119    0.9843
 -179.94   87.79  168.79     0.000140       1.0041    1.0118    0.9843
 -179.96   86.30  176.26     0.000162       1.0043    1.0117    0.9842
 -179.94   86.19  178.63     0.000959       1.0043    1.0117    0.9842
 -179.79   89.04  146.46     0.000420       1.0025    1.0133    0.9844
 -179.66   87.10  147.18     0.000384       1.0026    1.0132    0.9844
 -179.54   83.50  150.84     0.000303       1.0030    1.0128    0.9845
 -179.54   81.95  153.92     0.000326       1.0032    1.0125    0.9845
 -179.76   78.90  169.21     0.000549       1.0041    1.0116    0.9845
 -179.87   78.54  176.20     0.002815       1.0042    1.0115    0.9845
 -179.64   88.48  133.44     0.000518       1.0005    1.0151    0.9847
 -178.66   76.71  141.91     0.000329       1.0018    1.0136    0.9849
 -178.76   74.41  146.81     0.000157       1.0024    1.0129    0.9849
 -178.99   72.58  153.45     0.000175       1.0031    1.0122    0.9849
 -179.32   71.30  162.35     0.001264       1.0037    1.0116    0.9849
 -179.72   70.64  173.66     0.004569       1.0040    1.0112    0.9849
 -179.42   88.03  123.77     0.000401       0.9985    1.0167    0.9851
 -177.29   71.62  132.57     0.000104       1.0001    1.0147    0.9854
 -177.47   68.13  137.82     0.000231       1.0010    1.0137    0.9855
 -177.93   65.30  145.16     0.000898       1.0020    1.0126    0.9856
 -178.63   63.31  155.73     0.002068       1.0030    1.0115    0.9856
 -179.48   62.28  170.90     0.006236       1.0037    1.0108    0.9856
 -175.37   66.77  124.57     0.000100       0.9984    1.0157    0.9861
 -175.64   61.74  130.03     0.000539       0.9995    1.0145    0.9863
 -176.46   57.63  137.79     0.001585       1.0008    1.0130    0.9864
 -177.68   54.76  149.36     0.002735       1.0023    1.0114    0.9864
 -179.15   53.29  167.85     0.008053       1.0034    1.0103    0.9865
 -173.38   69.81  113.37     0.000066       0.9959    1.0176    0.9867
 -172.80   62.30  117.10     0.000018       0.9966    1.0166    0.9870
 -173.21   55.10  122.74     0.001002       0.9978    1.0151    0.9872
 -174.52   49.27  130.95     0.001955       0.9995    1.0133    0.9874
 -176.46   45.36  -36.74     0.002990       1.0014    1.0113    0.9874
 -178.73   43.43  164.48     0.009874       1.0031    1.0097    0.9874
 -175.59   83.35  103.40     0.000307       0.9945    1.0193    0.9866
 -172.83   77.30  104.45     0.000114       0.9944    1.0190    0.9869
 -170.56   69.05  106.32     0.000314       0.9945    1.0183    0.9875
 -169.48   58.51  109.68     0.000013       0.9950    1.0172    0.9880
 -170.09   47.76  115.51     0.000771       0.9962    1.0156    0.9884
 -172.15   39.61  -55.55     0.001812       0.9982    1.0136    0.9884
 -175.03   34.71  -42.40     0.002644       1.0006    1.0112    0.9884
 -178.24   32.47  -19.08     0.011943       1.0027    1.0091    0.9883
 -178.22   88.78   97.48     0.000150       0.9940    1.0197    0.9867
 -167.40   71.77   99.47     0.000373       0.9932    1.0188    0.9883
 -165.25   56.31  101.95     0.000114       0.9934    1.0177    0.9892
 -166.24   38.25  -71.88     0.000634       0.9947    1.0160    0.9896
 -169.57   27.34  -61.50     0.001322       0.9969    1.0137    0.9895
 -173.59   22.28  -47.14     0.002264       0.9998    1.0111    0.9893
 -177.73   20.28  157.68     0.013377       1.0024    1.0086    0.9891
 -178.10   89.69   92.48     0.000055       0.9937    1.0198    0.9868
 -174.11   88.46   92.59     0.000747       0.9935    1.0197    0.9871
 -169.69   86.41   92.77     0.000957       0.9930    1.0195    0.9878
 -164.76   81.82   93.05     0.000289       0.9924    1.0190    0.9889
 -160.15   62.13   93.77     0.000316       0.9920    1.0179    0.9904
 -162.26   19.37  -78.70     0.000661       0.9934    1.0162    0.9906
 -167.49   10.38  -65.72     0.000822       0.9961    1.0138    0.9902
 -172.39    7.85  129.78     0.002160       0.9993    1.0110    0.9898
 -177.03    6.98  155.28     0.013719       1.0022    1.0083    0.9896
 -179.89   89.64  166.55     0.000148       1.0040    1.0119    0.9843
 -179.92   88.99  166.93     0.000670       1.0040    1.0119    0.9843
 -179.95   88.36  167.67     0.000141       1.0041    1.0119    0.9843
 -179.95   86.53  174.01     0.000164       1.0043    1.0117    0.9842
 -179.92   86.30  176.26     0.000938       1.0043    1.0117    0.9842
 -179.89   86.19  178.64     0.000156       1.0043    1.0117    0.9842
 -179.82   89.02  146.47     0.000361       1.0025    1.0133    0.9844
 -179.62   85.22  148.61     0.000311       1.0027    1.0130    0.9844
 -179.58   83.49  150.82     0.000391       1.0030    1.0128    0.9845
 -179.56   81.95  153.89     0.000009       1.0032    1.0125    0.9845
 -179.62   79.62  163.04     0.000529       1.0038    1.0119    0.9845
 -179.70   78.91  169.21     0.002301       1.0041    1.0117    0.9845
 -179.82   78.54  176.21     0.000411       1.0042    1.0115    0.9845
 -178.75   79.35  138.32     0.000221       1.0013    1.0141    0.9848
 -178.68   76.70  141.88     0.000137       1.0018    1.0136    0.9848
 -178.75   74.41  146.78     0.000661       1.0024    1.0129    0.9849
 -178.95   72.58  153.43     0.001048       1.0031    1.0122    0.9849
 -179.26   71.30  162.35     0.002586       1.0036    1.0116    0.9849
 -179.66   70.64  173.66     0.000679       1.0040    1.0112    0.9849
 -177.48   75.51  128.80     0.000331       0.9994    1.0155    0.9853
 -177.31   71.61  132.55     0.000631       1.0001    1.0147    0.9854
 -177.45   68.14  137.79     0.001335       1.0010    1.0137    0.9855
 -177.89   65.32  145.13     0.001300       1.0020    1.0126    0.9855
 -178.57   63.33  155.73     0.001880       1.0030    1.0115    0.9856
 -179.42   62.29  170.91     0.000899       1.0037    1.0108    0.9856
 -179.17   87.71  115.81     0.000033       0.9968    1.0180    0.9855
 -175.39   66.75  124.55     0.000943       0.9984    1.0157    0.9861
 -175.63   61.75  130.00     0.001337       0.9995    1.0145    0.9863
 -176.40   57.65  137.76     0.001027       1.0008    1.0130    0.9864
 -177.60   54.78  149.34     0.000950       1.0023    1.0114    0.9864
 -179.08   53.29  167.85     0.000961       1.0034    1.0103    0.9865
 -174.82   76.58  111.01     0.000307       0.9956    1.0183    0.9864
 -173.42   69.73  113.37     0.000237       0.9960    1.0176    0.9867
 -172.82   62.27  117.09     0.000624       0.9967    1.0166    0.9870
 -173.19   55.11  122.71     0.000641       0.9978    1.0151    0.9872
 -174.46   49.30  130.91     0.000593       0.9995    1.0133    0.9874
 -176.37   45.38  -36.78     0.000308       1.0014    1.0113    0.9874
 -178.64   43.44  164.46     0.000803       1.0030    1.0097    0.9874
 -178.50   88.02  102.90     0.000164       0.9945    1.0194    0.9864
 -175.62   83.25  103.40     0.000528       0.9945    1.0193    0.9866
 -170.60   68.95  106.32     0.000449       0.9945    1.0183    0.9875
 -169.49   58.46  109.68     0.000041       0.9950    1.0172    0.9880
 -172.07   39.65  -55.61     0.000015       0.9982    1.0136    0.9884
 -178.12   32.49  -19.12     0.000474       1.0027    1.0091    0.9883
 -167.43   71.63   99.47     0.000190       0.9932    1.0188    0.9883
 -165.27   56.24  101.95     0.000246       0.9934    1.0177    0.9891
 -166.19   38.30  -71.93     0.000069       0.9947    1.0160    0.9895
 -173.41   22.33  -47.27     0.000166       0.9998    1.0111    0.9893
 -177.54   20.29  157.56     0.000284       1.0024    1.0086    0.9891
 -178.10   89.71   92.48     0.000010       0.9937    1.0198    0.9868
 -174.12   88.39   92.59     0.001046       0.9934    1.0197    0.9871
 -169.70   86.31   92.77     0.000838       0.9930    1.0195    0.9878
 -171.96    7.90  129.39     0.000197       0.9993    1.0110    0.9898
 -176.54    6.99  154.86     0.000010       1.0022    1.0083    0.9896
 -179.93   89.64  166.55     0.000654       1.0040    1.0119    0.9843
 -179.96   88.98  166.92     0.000143       1.0040    1.0119    0.9843
 -179.94   86.86  171.98     0.000163       1.0042    1.0117    0.9842
 -179.90   86.53  174.02     0.000899       1.0043    1.0117    0.9842
 -179.87   86.30  176.27     0.000151       1.0043    1.0117    0.9842
 -179.76   87.07  147.17     0.000321       1.0026    1.0132    0.9844
 -179.66   85.21  148.59     0.000403       1.0027    1.0130    0.9844
 -179.59   83.48  150.79     0.000049       1.0030    1.0128    0.9844
 -179.54   81.95  153.87     0.000217       1.0033    1.0125    0.9844
 -179.54   80.65  157.92     0.000481       1.0036    1.0122    0.9845
 -179.57   79.62  163.05     0.001522       1.0038    1.0119    0.9845
 -179.65   78.91  169.23     0.000317       1.0041    1.0117    0.9845
 -179.00   82.23  135.80     0.000283       1.0009    1.0146    0.9848
 -178.77   79.34  138.29     0.000259       1.0013    1.0141    0.9848
 -178.66   76.71  141.86     0.000818       1.0018    1.0136    0.9848
 -178.70   74.42  146.77     0.000833       1.0024    1.0129    0.9849
 -178.89   72.60  153.44     0.000565       1.0031    1.0122    0.9849
 -179.20   71.31  162.38     0.000375       1.0036    1.0116    0.9849
 -177.97   79.59  126.19     0.000404       0.9989    1.0161    0.9852
 -177.49   75.49  128.78     0.000840       0.9994    1.0155    0.9853
 -177.29   71.61  132.53     0.001101       1.0001    1.0147    0.9854
 -177.40   68.16  137.77     0.000734       1.0010    1.0137    0.9855
 -178.50   63.34  155.75     0.000427       1.0030    1.0115    0.9856
 -179.21   87.63  115.81     0.000070       0.9968    1.0179    0.9855
 -176.59   77.55  118.16     0.000011       0.9972    1.0173    0.9857
 -175.73   72.15  120.72     0.000551       0.9976    1.0167    0.9859
 -175.37   66.76  124.53     0.000443       0.9984    1.0157    0.9861
 -177.53   54.80  149.36     0.000399       1.0023    1.0114    0.9864
 -176.76   82.40  109.61     0.000299       0.9955    1.0187    0.9861
 -174.86   76.50  111.01     0.000252       0.9956    1.0183    0.9864
 -173.44   69.70  113.36     0.000139       0.9960    1.0176    0.9867
 -176.28   45.41  -36.78     0.000463       1.0014    1.0113    0.9874
 -178.53   87.91  102.90     0.000458       0.9945    1.0194    0.9864
 -175.66   83.13  103.40     0.000103       0.9945    1.0193    0.9866
 -174.80   34.77  -42.50     0.000404       1.0005    1.0112    0.9884
 -178.04   32.49  -19.11     0.000613       1.0027    1.0091    0.9884
 -174.70   85.13   97.78     0.000210       0.9938    1.0196    0.9869
 -170.99   80.13   98.38     0.000105       0.9935    1.0194    0.9875
 -166.10   38.42  -71.99     0.000034       0.9947    1.0160    0.9895
 -173.27   22.36  -47.34     0.000358       0.9998    1.0111    0.9893
 -177.45   20.30  157.56     0.001310       1.0024    1.0086    0.9891
 -178.11   89.60   92.48     0.000080       0.9937    1.0198    0.9868
 -174.13   88.27   92.58     0.000536       0.9934    1.0197    0.9871
 -169.71   86.18   92.76     0.000109       0.9930    1.0195    0.9878
 -171.69    7.93  129.17     0.000039       0.9993    1.0110    0.9898
 -176.60    6.99  154.97     0.001490       1.0022    1.0083    0.9896
  179.98   89.63 -166.82     0.000145       1.0040    1.0119    0.9843
 -179.96   87.27 -170.53     0.000161       1.0042    1.0118    0.9842
 -180.00   86.85 -172.28     0.000850       1.0042    1.0117    0.9842
  179.96   86.52 -174.32     0.000146       1.0043    1.0117    0.9842
  179.92   88.97 -146.63     0.000338       1.0025    1.0133    0.9844
  179.80   87.04 -147.36     0.000403       1.0026    1.0132    0.9844
  179.72   85.17 -148.82     0.000062       1.0028    1.0130    0.9844
  179.64   83.45 -151.03     0.000355       1.0030    1.0128    0.9844
  179.59   81.92 -154.09     0.000441       1.0033    1.0125    0.9844
  179.57   80.63 -158.15     0.000782       1.0036    1.0122    0.9845
  179.61   79.61 -163.28     0.000271       1.0039    1.0119    0.9845
  179.38   85.22   45.65     0.000388       1.0006    1.0149    0.9847
  179.04   82.17   44.06     0.000432       1.0009    1.0146    0.9847
  178.80   79.29 -138.42     0.000764       1.0013    1.0141    0.9848
  178.68   76.67 -141.98     0.000633       1.0018    1.0136    0.9848
  178.91   72.58 -153.58     0.000402       1.0031    1.0122    0.9849
  178.72   83.67   55.36     0.000389       0.9986    1.0165    0.9851
  178.00   79.51   53.74     0.000702       0.9990    1.0161    0.9852
  177.50   75.43   51.16     0.000649       0.9995    1.0155    0.9853
  177.83   65.31   34.80     0.000440       1.0021    1.0126    0.9856
  178.54   63.32 -155.85     0.000541       1.0030    1.0115    0.9856
  177.83   82.59   63.41     0.000063       0.9969    1.0178    0.9856
  176.59   77.45   61.84     0.000250       0.9972    1.0174    0.9857
  175.71   72.09   59.28     0.000058       0.9977    1.0167    0.9859
  177.56   54.78   30.61     0.000854       1.0023    1.0114    0.9865
  178.91   87.41   71.07     0.000065       0.9955    1.0189    0.9860
  176.77   82.25   70.42     0.000089       0.9955    1.0187    0.9861
  176.30   45.39 -143.18     0.000806       1.0014    1.0113    0.9874
  178.65   43.44 -164.50     0.000123       1.0030    1.0097    0.9874
  178.55   87.69   77.16     0.000250       0.9945    1.0194    0.9864
  174.83   34.75 -137.43     0.000444       1.0005    1.0112    0.9884
  178.13   32.49 -160.85     0.000677       1.0027    1.0090    0.9884
  178.25   88.34   82.60     0.000006       0.9940    1.0197    0.9867
  174.69   84.92   82.31     0.000388       0.9938    1.0196    0.9869
  170.98   79.98   81.71     0.000412       0.9935    1.0193    0.9875
  173.31   22.33 -132.56     0.000165       0.9998    1.0111    0.9893
  177.58   20.29 -157.47     0.001189       1.0024    1.0086    0.9892
  178.08   89.29   87.62     0.000200       0.9937    1.0197    0.9868
  160.15   61.87   86.33     0.000182       0.9920    1.0179    0.9903
  171.83    7.88 -129.14     0.000021       0.9993    1.0110    0.9898
  176.79    6.98 -154.88     0.001447       1.0022    1.0083    0.9896
 -179.96   87.77 -169.07     0.000159       1.0041    1.0118    0.9842
  180.00   87.27 -170.51     0.000795       1.0042    1.0118    0.9842
  179.96   86.85 -172.28     0.000143       1.0042    1.0117    0.9842
  179.96   88.96 -146.65     0.000408       1.0025    1.0133    0.9844
  179.85   87.02 -147.37     0.000067       1.0026    1.0132    0.9844
  179.73   85.17 -148.79     0.000416       1.0028    1.0130    0.9844
  179.61   83.46 -150.98     0.000419       1.0030    1.0128    0.9844
  179.54   81.93 -154.06     0.000260       1.0033    1.0125    0.9844
  179.53   80.64 -158.14     0.000273       1.0036    1.0122    0.9845
  179.82   88.33   46.43     0.000466       1.0005    1.0151    0.9847
  179.40   85.20   45.66     0.000546       1.0006    1.0149    0.9847
  179.03   82.17   44.10     0.000651       1.0009    1.0146    0.9847
  178.76   79.31 -138.39     0.000354       1.0013    1.0141    0.9848
  178.67   74.41 -146.89     0.000392       1.0024    1.0129    0.9849
  178.89   72.59 -153.60     0.000555       1.0031    1.0122    0.9849
  179.59   87.81   56.16     0.000360       0.9985    1.0167    0.9851
  178.72   83.66   55.39     0.000493       0.9987    1.0165    0.9851
  177.98   79.53   53.77     0.000456       0.9990    1.0161    0.9852
  177.81   65.33   34.78     0.000629       1.0020    1.0126    0.9856
  178.55   63.33 -155.89     0.000219       1.0030    1.0115    0.9856
  177.82   82.59   63.43     0.000192       0.9969    1.0178    0.9856
  176.30   57.67   42.23     0.000068       1.0008    1.0130    0.9864
  177.57   54.78   30.57     0.000626       1.0023    1.0114    0.9865
  178.91   87.41   71.08     0.000161       0.9955    1.0189    0.9860
  176.76   82.27   70.43     0.000007       0.9955    1.0187    0.9861
  176.32   45.39 -143.24     0.000486       1.0014    1.0113    0.9874
  169.36   58.59   70.45     0.000111       0.9950    1.0172    0.9880
  174.86   34.75 -137.49     0.000295       1.0005    1.0112    0.9884
  178.25   88.38   82.61     0.000338       0.9940    1.0197    0.9867
  174.68   84.97   82.32     0.000381       0.9938    1.0196    0.9869
  170.96   80.07   81.71     0.000463       0.9935    1.0193    0.9874
  165.14   56.48   78.20     0.000146       0.9934    1.0177    0.9891
  173.37   22.32 -132.65     0.000116       0.9998    1.0111    0.9893
  177.71   20.28 -157.62     0.000001       1.0024    1.0086    0.9892
  178.08   89.35   87.62     0.000189       0.9937    1.0198    0.9868
  172.05    7.86 -129.39     0.000144       0.9993    1.0110    0.9898
  177.11    6.97 -155.24     0.000088       1.0022    1.0083    0.9896
 -179.95   88.34 -167.95     0.000155       1.0041    1.0119    0.9842
 -180.00   87.78 -169.05     0.000744       1.0042    1.0118    0.9842
  179.95   87.28 -170.51     0.000141       1.0042    1.0118    0.9842
 -179.99   86.19 -178.95     0.000160       1.0043    1.0117    0.9843
 -180.00   88.94 -146.66     0.000070       1.0025    1.0133    0.9844
  179.86   87.01 -147.34     0.000429       1.0026    1.0132    0.9844
  179.70   85.18 -148.75     0.000402       1.0028    1.0130    0.9844
  179.50   81.95 -154.06     0.000291       1.0033    1.0125    0.9844
  179.50   80.65 -158.15     0.000157       1.0036    1.0122    0.9845
  179.94   78.54 -176.49     0.000507       1.0042    1.0115    0.9845
  179.85   88.31   46.44     0.000587       1.0005    1.0151    0.9847
  179.39   85.21   45.70     0.000569       1.0006    1.0149    0.9847
  179.00   82.19   44.13     0.000072       1.0009    1.0146    0.9847
  178.60   76.71 -141.96     0.000199       1.0018    1.0136    0.9848
  178.65   74.42 -146.91     0.000574       1.0024    1.0129    0.9849
  178.89   72.59 -153.63     0.000109       1.0031    1.0122    0.9849
  179.79   70.64 -173.92     0.001149       1.0040    1.0112    0.9850
  179.59   87.80   56.18     0.000318       0.9985    1.0167    0.9851
  178.70   83.68   55.41     0.000456       0.9987    1.0165    0.9851
  177.34   68.16   42.16     0.000062       1.0010    1.0137    0.9855
  177.82   65.32   34.74     0.000321       1.0020    1.0126    0.9856
  179.56   62.29 -171.13     0.002138       1.0037    1.0108    0.9857
  177.80   82.62   63.44     0.000003       0.9969    1.0178    0.9856
  176.53   77.53   61.87     0.000018       0.9972    1.0173    0.9857
  176.32   57.67   42.19     0.000138       1.0008    1.0130    0.9864
  177.63   54.77   30.50     0.000443       1.0023    1.0114    0.9865
  179.23   53.29 -168.05     0.003654       1.0034    1.0103    0.9865
  178.90   87.43   71.09     0.000146       0.9955    1.0189    0.9859
  173.03   55.20   57.36     0.000085       0.9978    1.0151    0.9873
  174.36   49.33   49.11     0.000034       0.9995    1.0133    0.9874
  176.39   45.37 -143.32     0.000972       1.0014    1.0113    0.9874
  178.82   43.43 -164.64     0.005571       1.0030    1.0097    0.9875
  172.82   77.13   75.64     0.000174       0.9944    1.0189    0.9869
  169.87   47.94   64.66     0.000208       0.9962    1.0156    0.9884
  171.96   39.70 -124.32     0.000323       0.9981    1.0135    0.9885
  174.96   34.72 -137.61     0.001533       1.0005    1.0112    0.9884
  178.35   32.47 -161.07     0.008002       1.0027    1.0091    0.9884
  178.23   88.46   82.61     0.000394       0.9940    1.0197    0.9867
  174.66   85.08   82.31     0.000054       0.9938    1.0196    0.9869
  167.35   71.77   80.63     0.000011       0.9932    1.0187    0.9883
  165.98   38.55 -107.88     0.000060       0.9946    1.0160    0.9896
  169.35   27.43 -118.30     0.000508       0.9969    1.0137    0.9895
  173.54   22.28 -132.84     0.001875       0.9997    1.0111    0.9893
  177.92   20.26 -157.84     0.010560       1.0024    1.0086    0.9892
  178.07   89.47   87.62     0.000147       0.9937    1.0198    0.9868
  164.75   81.72   87.04     0.000106       0.9924    1.0190    0.9889
  161.87   19.75 -100.90     0.000287       0.9933    1.0162    0.9907
  167.23   10.39 -114.00     0.000658       0.9961    1.0138    0.9902
  172.53    7.81 -129.89     0.002033       0.9993    1.0110    0.9898
  177.68    6.95 -155.84     0.012711       1.0022    1.0083    0.9896
 -179.93   88.96 -167.20     0.000152       1.0041    1.0119    0.9842
 -179.99   88.35 -167.93     0.000701       1.0041    1.0119    0.9842
  179.96   87.78 -169.04     0.000140       1.0042    1.0118    0.9842
  179.99   86.30 -176.58     0.000162       1.0043    1.0117    0.9843
 -179.94   86.19 -178.95     0.000959       1.0043    1.0117    0.9843
 -179.99   88.93 -146.64     0.000420       1.0025    1.0133    0.9844
  179.83   87.02 -147.30     0.000384       1.0026    1.0132    0.9844
  179.53   83.49 -150.95     0.000303       1.0030    1.0128    0.9844
  179.48   81.95 -154.07     0.000326       1.0033    1.0125    0.9844
  179.79   78.90 -169.52     0.000549       1.0040    1.0116    0.9845
 -180.00   78.54 -176.50     0.002815       1.0042    1.0115    0.9845
  179.84   88.32   46.48     0.000518       1.0005    1.0151    0.9847
  178.58   76.72 -141.98     0.000329       1.0018    1.0136    0.9848
  178.66   74.42 -146.94     0.000157       1.0024    1.0129    0.9849
  178.93   72.58 -153.66     0.000175       1.0030    1.0122    0.9849
  179.35   71.29 -162.63     0.001264       1.0036    1.0116    0.9850
  179.86   70.63 -173.93     0.004569       1.0040    1.0112    0.9850
  179.58   87.82   56.20     0.000401       0.9985    1.0167    0.9850
  177.19   71.64   47.42     0.000104       1.0001    1.0147    0.9854
  177.35   68.16   42.12     0.000231       1.0010    1.0137    0.9855
  177.87   65.31   34.69     0.000898       1.0020    1.0126    0.9856
  178.66   63.30 -155.98     0.002068       1.0030    1.0115    0.9856
  179.64   62.27 -171.15     0.006236       1.0037    1.0108    0.9857
  175.25   66.81   55.47     0.000100       0.9984    1.0157    0.9861
  175.51   61.79   49.97     0.000539       0.9995    1.0144    0.9863
  176.38   57.64   42.13     0.001585       1.0008    1.0130    0.9864
  177.71   54.74   30.44     0.002735       1.0022    1.0114    0.9865
  179.32   53.27 -168.09     0.008053       1.0034    1.0103    0.9865
  173.30   69.82   66.70     0.000066       0.9960    1.0176    0.9867
  172.66   62.38   62.98     0.000018       0.9967    1.0166    0.9870
  173.07   55.17   57.32     0.001002       0.9978    1.0151    0.9873
  174.44   49.29   49.03     0.001955       0.9995    1.0133    0.9874
  176.50   45.33 -143.41     0.002990       1.0014    1.0113    0.9874
  178.93   43.41 -164.71     0.009874       1.0030    1.0097    0.9874
  175.59   83.15   76.68     0.000307       0.9945    1.0193    0.9865
  172.79   77.22   75.63     0.000114       0.9944    1.0189    0.9869
  170.48   69.11   73.77     0.000314       0.9945    1.0183    0.9875
  169.33   58.67   70.43     0.000013       0.9950    1.0172    0.9880
  169.92   47.89   64.60     0.000771       0.9962    1.0156    0.9884
  172.07   39.63 -124.42     0.001812       0.9981    1.0136    0.9885
  175.10   34.67 -137.74     0.002644       1.0005    1.0112    0.9884
  178.51   32.45 -161.19     0.011943       1.0027    1.0091    0.9884
  178.22   88.57   82.60     0.000150       0.9940    1.0197    0.9867
  167.32   71.89   80.62     0.000373       0.9932    1.0187    0.9883
  165.10   56.63   78.18     0.000114       0.9934    1.0177    0.9892
  166.06   38.43 -107.96     0.000634       0.9946    1.0160    0.9896
  169.52   27.32 -118.47     0.001322       0.9969    1.0137    0.9895
  173.77   22.22 -133.06     0.002264       0.9997    1.0111    0.9893
  178.16   20.24 -158.07     0.013377       1.0024    1.0086    0.9892
  178.07   89.60   87.61     0.000055       0.9937    1.0198    0.9868
  174.09   88.35   87.51     0.000747       0.9935    1.0197    0.9871
  169.67   86.38   87.32     0.000957       0.9930    1.0195    0.9878
  164.73   81.97   87.03     0.000289       0.9924    1.0190    0.9889
  160.05   63.07   86.33     0.000316       0.9920    1.0179    0.9904
  162.12   19.41 -101.14     0.000661       0.9933    1.0162    0.9907
  167.72   10.24 -114.50     0.000822       0.9961    1.0138    0.9902
  173.15    7.75 -130.52     0.002160       0.9993    1.0110    0.9898
  178.33    6.94 -156.49     0.013719       1.0022    1.0083    0.9896
 -179.91   89.61 -166.82     0.000148       1.0041    1.0119    0.9842
 -179.98   88.97 -167.18     0.000670       1.0041    1.0119    0.9842
  179.97   88.35 -167.93     0.000141       1.0041    1.0118    0.9842
  179.98   86.52 -174.34     0.000164       1.0042    1.0117    0.9843
 -179.96   86.30 -176.58     0.000938       1.0042    1.0117    0.9843
 -179.89   86.18 -178.95     0.000156       1.0043    1.0117    0.9843
  179.99   88.94 -146.60     0.000361       1.0025    1.0133    0.9844
  179.62   85.21 -148.72     0.000311       1.0028    1.0130    0.9844
  179.51   83.49 -150.97     0.000391       1.0030    1.0128    0.9844
  179.48   81.96 -154.10     0.000009       1.0033    1.0125    0.9845
  179.66   79.61 -163.35     0.000529       1.0038    1.0119    0.9845
  179.84   78.89 -169.52     0.002301       1.0040    1.0117    0.9845
 -179.96   78.53 -176.50     0.000411       1.0042    1.0115    0.9845
  178.67   79.36 -138.39     0.000221       1.0013    1.0141    0.9848
  178.59   76.72 -142.01     0.000137       1.0018    1.0136    0.9848
  178.70   74.41 -146.98     0.000661       1.0024    1.0129    0.9849
  178.99   72.56 -153.70     0.001048       1.0030    1.0122    0.9849
  179.41   71.27 -162.65     0.002586       1.0036    1.0116    0.9850
  179.89   70.62 -173.92     0.000679       1.0040    1.0112    0.9850
  177.38   75.54   51.17     0.000331       0.9994    1.0155    0.9853
  177.21   71.63   47.38     0.000631       1.0001    1.0147    0.9854
  177.40   68.13   42.07     0.001335       1.0010    1.0137    0.9855
  177.94   65.28   34.65     0.001300       1.0020    1.0126    0.9856
  178.74   63.28 -156.01     0.001880       1.0030    1.0115    0.9856
  179.65   62.27 -171.14     0.000899       1.0037    1.0108    0.9856
  179.22   87.55   64.20     0.000033       0.9968    1.0180    0.9855
  175.27   66.79   55.43     0.000943       0.9984    1.0157    0.9861
  175.57   61.75   49.92     0.001337       0.9994    1.0144    0.9863
  176.46   57.60   42.07     0.001027       1.0008    1.0130    0.9864
  177.80   54.71   30.39     0.000950       1.0023    1.0114    0.9865
  179.34   53.27 -168.06     0.000961       1.0034    1.0103    0.9865
  174.74   76.61   69.04     0.000307       0.9956    1.0183    0.9863
  173.30   69.82   66.68     0.000237       0.9960    1.0176    0.9867
  172.70   62.34   62.94     0.000624       0.9966    1.0166    0.9870
  173.14   55.10   57.26     0.000641       0.9978    1.0151    0.9873
  174.54   49.22   48.95     0.000593       0.9995    1.0133    0.9874
  176.61   45.29 -143.49     0.000308       1.0014    1.0113    0.9874
  178.95   43.40 -164.68     0.000803       1.0030    1.0097    0.9874
  178.49   87.91   77.16     0.000164       0.9945    1.0194    0.9864
  175.57   83.22   76.67     0.000528       0.9945    1.0193    0.9866
  170.48   69.11   73.75     0.000449       0.9945    1.0183    0.9875
  169.37   58.59   70.39     0.000041       0.9950    1.0172    0.9880
  172.21   39.53 -124.53     0.000015       0.9981    1.0136    0.9885
  178.55   32.44 -161.18     0.000474       1.0027    1.0091    0.9884
  167.32   71.92   80.61     0.000190       0.9932    1.0188    0.9883
  165.15   56.50   78.14     0.000246       0.9934    1.0177    0.9892
  166.20   38.22 -108.08     0.000069       0.9946    1.0160    0.9896
  173.98   22.15 -133.26     0.000166       0.9997    1.0111    0.9893
  178.27   20.23 -158.13     0.000284       1.0024    1.0086    0.9891
  178.06   89.71   87.61     0.000010       0.9937    1.0198    0.9868
  174.08   88.47   87.50     0.001046       0.9934    1.0197    0.9871
  169.66   86.52   87.31     0.000838       0.9930    1.0195    0.9878
  173.70    7.69 -131.06     0.000197       0.9993    1.0110    0.9898
  178.85    6.92 -157.00     0.000010       1.0022    1.0083    0.9896
 -179.96   89.62 -166.80     0.000654       1.0041    1.0119    0.9842
  179.98   88.97 -167.17     0.000143       1.0041    1.0119    0.9842
  179.97   86.85 -172.31     0.000163       1.0042    1.0117    0.9843
 -179.97   86.52 -174.35     0.000899       1.0042    1.0117    0.9843
 -179.91   86.30 -176.58     0.000151       1.0043    1.0117    0.9843
  179.75   87.05 -147.28     0.000321       1.0026    1.0132    0.9844
  179.60   85.21 -148.73     0.000403       1.0028    1.0130    0.9844
  179.51   83.50 -150.99     0.000049       1.0030    1.0128    0.9844
  179.50   81.95 -154.13     0.000217       1.0032    1.0125    0.9845
  179.58   80.63 -158.22     0.000481       1.0035    1.0122    0.9845
  179.72   79.59 -163.36     0.001522       1.0038    1.0119    0.9845
  179.88   78.88 -169.52     0.000317       1.0040    1.0117    0.9845
  178.92   82.25   44.12     0.000283       1.0009    1.0146    0.9847
  178.68   79.36 -138.42     0.000259       1.0013    1.0141    0.9848
  178.62   76.70 -142.04     0.000818       1.0018    1.0136    0.9849
  178.76   74.39 -147.01     0.000833       1.0024    1.0129    0.9849
  179.05   72.54 -153.72     0.000565       1.0030    1.0122    0.9849
  179.43   71.27 -162.62     0.000375       1.0036    1.0116    0.9849
  177.88   79.63   53.77     0.000404       0.9990    1.0161    0.9852
  177.40   75.52   51.14     0.000840       0.9994    1.0155    0.9853
  177.25   71.60   47.34     0.001101       1.0001    1.0147    0.9854
  177.47   68.09   42.03     0.000734       1.0010    1.0137    0.9855
  178.74   63.27 -155.95     0.000427       1.0030    1.0115    0.9856
  179.20   87.59   64.19     0.000070       0.9968    1.0180    0.9855
  176.48   77.60   61.84     0.000011       0.9972    1.0173    0.9857
  175.63   72.19   59.25     0.000551       0.9976    1.0167    0.9859
  175.33   66.73   55.39     0.000443       0.9984    1.0157    0.9861
  177.78   54.71   30.47     0.000399       1.0023    1.0114    0.9865
  176.67   82.45   70.42     0.000299       0.9955    1.0187    0.9861
  174.75   76.59   69.02     0.000252       0.9956    1.0183    0.9864
  173.34   69.76   66.65     0.000139       0.9959    1.0176    0.9867
  176.58   45.29 -143.39     0.000463       1.0014    1.0113    0.9874
  178.48   87.95   77.15     0.000458       0.9945    1.0194    0.9864
  175.57   83.24   76.65     0.000103       0.9944    1.0193    0.9866
  175.20   34.62 -137.75     0.000404       1.0005    1.0112    0.9884
  178.45   32.45 -161.05     0.000613       1.0027    1.0091    0.9883
  174.62   85.31   82.29     0.000210       0.9938    1.0196    0.9869
  170.90   80.40   81.68     0.000105       0.9934    1.0194    0.9875
  166.33   38.01 -108.18     0.000034       0.9946    1.0160    0.9896
  173.92   22.17 -133.14     0.000358       0.9998    1.0111    0.9893
  178.11   20.24 -157.91     0.001310       1.0024    1.0086    0.9891
  178.06   89.68   87.61     0.000080       0.9937    1.0198    0.9868
  174.08   88.48   87.50     0.000536       0.9934    1.0197    0.9871
  169.67   86.55   87.30     0.000109       0.9930    1.0195    0.9878
  173.57    7.70 -130.89     0.000039       0.9993    1.0110    0.9898
  178.37    6.93 -156.44     0.001490       1.0022    1.0083    0.9896
