MORPHOLOGY AT STRAIN =    1.0000  FOR PHASE  1
   1.645   1.645   0.364  <-- AXES OF PHASE ELLIPSOID
    7.78    0.00    0.00  <-- EULER ANGLES OF PHASE ELLIPSOID (deg)
   1.257   2.189   0.365  <-- AVERAGE OF GRAIN AXES FOR PHASE
   0.154   0.043   0.138  <-- STANDARD DEV OF AVG GRAIN AXES FOR PHASE
B       500
   46.77    4.54  -67.05     0.002000       1.4489    2.0237    0.3348
 -153.37    7.98  -91.24     0.002000       1.1102    2.2393    0.3962
  165.50    5.43 -105.14     0.002000       1.5587    2.0888    0.3007
   60.12    4.72  -90.63     0.002000       1.0419    2.2632    0.4181
  -10.28    3.34   71.24     0.002000       1.4134    2.2904    0.3021
   23.22    1.02  106.84     0.002000       1.8480    1.9968    0.2640
  102.46    6.84  -90.98     0.002000       1.0796    2.2721    0.4016
   35.69    5.47   94.66     0.002000       1.2378    2.3649    0.3350
 -150.84    5.98  106.71     0.002000       1.2568    2.0295    0.3863
   84.14    5.94  -95.46     0.002000       1.1296    2.2069    0.3951
  142.98    3.97 -107.27     0.002000       1.3614    2.3157    0.3105
 -132.30    1.06   93.61     0.002000       1.5801    2.2391    0.2756
  -51.80    5.32   96.22     0.002000       1.0896    2.1926    0.4127
   50.35    5.79   80.51     0.002000       1.2861    2.2421    0.3404
   77.21    6.32  -98.68     0.002000       1.2571    2.2473    0.3476
   57.57    2.47  -65.76     0.002000       1.5062    2.2758    0.2848
  120.99    2.16  -89.49     0.002000       1.3696    2.3839    0.2993
  -84.23    8.35   89.54     0.002000       1.1124    2.2776    0.3886
  -76.58    7.07   84.65     0.002000       1.1791    2.2173    0.3764
  -93.40    8.73   89.21     0.002000       1.1426    2.2901    0.3760
 -117.47    7.53   85.83     0.002000       1.1873    2.2160    0.3740
 -148.65    8.33  -89.74     0.002000       1.1057    2.2496    0.3960
  -76.68    2.78   87.93     0.002000       1.7732    2.0566    0.2673
 -175.65    4.89  -69.22     0.002000       1.4886    2.1342    0.3082
 -136.39    8.81  -90.86     0.002000       1.1674    2.2844    0.3688
   20.92    6.85   90.48     0.002000       1.0932    2.2407    0.4023
 -154.15    1.02  -85.11     0.002000       1.5972    2.2170    0.2754
  164.76    7.03  -91.83     0.002000       1.0709    2.2333    0.4122
    1.17    1.45   93.11     0.002000       1.4247    2.3393    0.2931
   -2.82    2.65   81.84     0.002000       1.0614    2.1797    0.4265
 -139.46    5.24  -97.29     0.002000       1.2900    2.3383    0.3249
   -8.50    5.89   83.43     0.002000       1.1599    2.1397    0.3971
  157.03    6.73  -88.69     0.002000       1.1224    2.1956    0.3999
   49.95    4.35  -66.82     0.002000       1.5124    2.1835    0.2961
  163.58    6.47  -82.02     0.002000       1.2347    2.1136    0.3773
 -172.61    7.22  -85.29     0.002000       1.2070    2.1826    0.3736
 -179.39    5.96 -102.41     0.002000       1.3121    2.1458    0.3490
   70.74    6.42  -89.46     0.002000       1.0675    2.2692    0.4068
  155.15    7.06  -98.08     0.002000       1.2437    2.2652    0.3486
 -170.11    3.42  -76.49     0.002000       1.3913    2.3274    0.3020
  -11.46    0.00    0.00     0.002000       1.0217    2.2669    0.4258
  -31.32    2.53   72.72     0.002000       1.7273    2.0907    0.2700
   14.21    4.03   71.33     0.002000       1.3982    2.2409    0.3125
  -42.88    5.94  106.33     0.002000       1.2656    2.0364    0.3823
  -28.81    7.90   92.82     0.002000       1.1421    2.2337    0.3860
  118.67    3.17  -92.10     0.002000       1.0258    2.2565    0.4260
   93.07    1.11  -85.19     0.002000       1.0161    2.2701    0.4275
   45.31    2.38   88.01     0.002000       1.0271    2.2552    0.4257
  151.80    1.68  -87.74     0.002000       1.0207    2.2366    0.4321
  -53.08    4.51   89.54     0.002000       1.0357    2.2498    0.4232
  -61.01    7.11   93.94     0.002000       1.2183    2.3180    0.3477
   21.39    6.03   97.29     0.002000       1.2448    2.3175    0.3402
  -13.24    1.26   49.57     0.002000       1.0700    2.1488    0.4292
    0.30    3.76  113.41     0.002000       1.4210    2.2534    0.3056
  -45.65    4.81  117.99     0.002000       1.3118    1.8661    0.4031
  -78.31    8.23   86.27     0.002000       1.1730    2.2769    0.3682
   47.07    5.36  -74.65     0.002000       1.3185    2.2082    0.3371
   10.76    2.77   88.14     0.002000       1.0284    2.2397    0.4282
   10.22    0.00    0.00     0.002000       1.7475    2.0981    0.2657
  -43.40    3.46   89.33     0.002000       1.2949    2.4001    0.3149
  153.24    1.49  -95.40     0.002000       1.4590    2.3174    0.2888
   52.19    5.03  -72.90     0.002000       1.3403    2.2110    0.3310
  -18.41    1.27   93.49     0.002000       1.0301    2.2250    0.4304
  -13.78    2.10   71.43     0.002000       1.5328    2.2498    0.2830
 -125.44    0.92 -106.80     0.002000       1.0184    2.2531    0.4299
   59.55    5.50  -71.77     0.002000       1.2817    2.0504    0.3746
  171.22    7.08  -98.80     0.002000       1.2576    2.2129    0.3531
  -11.17    5.15  115.10     0.002000       1.3313    1.9290    0.3838
 -134.95    6.62   90.36     0.002000       1.0581    2.2511    0.4139
  127.98    6.09  -81.09     0.002000       1.2746    2.1284    0.3626
  -70.32    7.18   95.36     0.002000       1.2253    2.3004    0.3484
   32.84    3.51   68.97     0.002000       1.5609    2.1800    0.2871
  104.06    3.25 -113.55     0.002000       1.4702    2.2710    0.2927
  152.21    6.91  -91.81     0.002000       1.0699    2.2350    0.4123
 -141.59    3.83 -100.09     0.002000       1.3507    2.3477    0.3086
  114.48    1.67 -104.50     0.002000       1.4551    2.3341    0.2874
  152.17    8.06  -92.53     0.002000       1.1163    2.2410    0.3937
  151.46    5.08 -109.40     0.002000       1.3641    2.0945    0.3438
  -52.18    7.44   92.26     0.002000       1.2047    2.3178    0.3518
 -177.12    5.46 -102.76     0.002000       1.5290    2.0678    0.3099
  -16.19    8.13   92.84     0.002000       1.1471    2.2422    0.3828
   63.53    4.29  -90.16     0.002000       1.2530    2.4120    0.3241
  114.11    7.55  -95.14     0.002000       1.1965    2.3041    0.3564
  -71.12    4.89  101.55     0.002000       1.3141    2.3093    0.3229
  -36.17    0.00    0.00     0.002000       1.8737    1.9784    0.2627
  -12.76    5.87   83.45     0.002000       1.2617    2.3051    0.3374
  -96.74    3.71   92.51     0.002000       1.0250    2.2724    0.4233
  -33.56    3.48   88.40     0.002000       1.2965    2.3920    0.3156
   55.47    5.18   74.70     0.002000       1.3362    2.0719    0.3551
  -74.62    5.76   91.52     0.002000       1.0680    2.2509    0.4100
  170.39    8.75  -90.24     0.002000       1.1631    2.2648    0.3735
  111.18    7.51  -87.69     0.002000       1.1957    2.3140    0.3551
 -124.47    3.49  105.74     0.002000       1.6962    2.1076    0.2729
 -127.07    6.39  101.52     0.002000       1.2167    2.1189    0.3820
  -31.32    1.79   75.11     0.002000       1.5863    2.2184    0.2772
   17.41    4.56  111.78     0.002000       1.3919    2.1728    0.3242
  -85.47    6.72   85.15     0.002000       1.1400    2.2098    0.3909
  -20.39    7.95   94.35     0.002000       1.1840    2.2407    0.3708
   14.48    6.12   83.21     0.002000       1.2055    2.1402    0.3817
  -72.46    4.74   80.45     0.002000       1.2926    2.3716    0.3195
  168.85    5.83  -95.62     0.002000       1.1018    2.1833    0.4099
  -41.36    1.68   99.10     0.002000       1.8227    2.0182    0.2648
  -23.28    6.20   86.32     0.002000       1.1376    2.1801    0.3973
  -42.02    5.71   89.52     0.002000       1.0791    2.2262    0.4104
  134.80    0.00    0.00     0.002000       1.6278    2.1891    0.2736
   30.15    1.83   93.70     0.002000       1.0221    2.2449    0.4299
   56.75    6.56  -85.72     0.002000       1.2118    2.3493    0.3448
  -40.93    5.25   65.35     0.002000       1.3786    1.9287    0.3703
   39.67    5.56   77.49     0.002000       1.2909    2.0858    0.3654
   72.84    7.67  -92.87     0.002000       1.1798    2.3013    0.3620
  -18.17    7.64   87.64     0.002000       1.1599    2.2262    0.3813
   82.68    7.05  -95.63     0.002000       1.1991    2.2432    0.3656
 -158.84    5.77 -105.19     0.002000       1.1832    2.0445    0.4078
   84.44    4.54 -107.95     0.002000       1.3737    2.1341    0.3347
  150.65    3.95 -113.72     0.002000       1.4336    2.2509    0.3032
  174.90    3.30 -110.81     0.002000       1.0942    2.1167    0.4261
  -40.14    4.60  110.45     0.002000       1.3994    2.0847    0.3365
  -43.93    6.76   96.52     0.002000       1.1854    2.1676    0.3833
 -160.49    7.97  -85.11     0.002000       1.2182    2.2581    0.3573
 -137.98    5.32  -90.66     0.002000       1.0408    2.2484    0.4214
   33.50    3.59  -64.94     0.002000       1.5712    2.1818    0.2849
  102.77    0.00    0.00     0.002000       1.5551    2.2395    0.2801
 -116.53    6.18   89.97     0.002000       1.0506    2.2629    0.4147
   49.91    5.62  -75.51     0.002000       1.2652    2.1139    0.3679
    2.21    6.16   81.17     0.002000       1.2790    2.2359    0.3433
 -112.72    3.93   91.87     0.002000       1.0266    2.2676    0.4236
   84.51    0.00    0.00     0.002000       1.7310    2.0972    0.2684
  -14.27    5.96   81.65     0.002000       1.1866    2.1212    0.3915
  -36.34    4.24  118.52     0.002000       1.2274    1.9222    0.4185
  160.97    5.21  -88.33     0.002000       1.2605    2.3619    0.3292
 -158.75    2.49  -99.38     0.002000       1.4196    2.3366    0.2945
  146.21    7.38  -91.73     0.002000       1.0877    2.2423    0.4041
  100.38    2.85  -75.14     0.002000       1.6467    2.1582    0.2745
  105.83    1.41  -84.61     0.002000       1.0180    2.2667    0.4274
 -170.44    4.54  -93.54     0.002000       1.0395    2.2374    0.4241
  -21.17    5.09  107.56     0.002000       1.3539    2.0897    0.3473
   95.06    8.11  -89.66     0.002000       1.1529    2.3013    0.3707
 -103.81    8.58   88.66     0.002000       1.1343    2.2790    0.3807
  174.42    3.47  -74.48     0.002000       1.4129    2.3006    0.3008
   52.04    6.23  -91.34     0.002000       1.1066    2.2321    0.3988
  105.19    6.90  -98.31     0.002000       1.2310    2.2573    0.3536
  -78.33    2.74   96.29     0.002000       1.0211    2.2677    0.4259
    3.73    7.11   90.43     0.002000       1.2047    2.3159    0.3521
   57.51    6.63  -94.81     0.002000       1.2262    2.3063    0.3472
 -141.13    4.76  -98.32     0.002000       1.3091    2.3420    0.3195
   57.81    4.90  -92.86     0.002000       1.0800    2.2235    0.4105
  -23.45    6.56   89.49     0.002000       1.1058    2.2191    0.4016
    5.13    4.26   90.45     0.002000       1.2649    2.3811    0.3253
  123.11    0.00    0.00     0.002000       1.7952    2.0288    0.2675
   -2.32    4.35   93.31     0.002000       1.0603    2.2176    0.4194
 -133.78    4.84  -98.84     0.002000       1.0888    2.1673    0.4180
   10.47    1.63  120.33     0.002000       1.0668    2.1677    0.4267
  -99.79    5.99   82.35     0.002000       1.2657    2.3342    0.3319
  -20.12    6.64   81.93     0.002000       1.2582    2.2072    0.3539
   -1.42    5.48   84.94     0.002000       1.2598    2.3275    0.3345
  -42.33    8.37   91.81     0.002000       1.1372    2.2530    0.3843
   43.78    1.80  -81.56     0.002000       1.0211    2.2625    0.4269
 -165.20    7.21  -96.78     0.002000       1.2477    2.2619    0.3480
 -133.39    2.20  106.92     0.002000       1.5013    2.2961    0.2831
   81.56    7.79  -89.71     0.002000       1.1112    2.2805    0.3885
   39.17    6.72   90.01     0.002000       1.0974    2.2449    0.3999
  -58.83    2.85   92.43     0.002000       1.0233    2.2513    0.4281
  156.67    7.21  -94.52     0.002000       1.1510    2.2005    0.3889
   22.47    5.54   75.78     0.002000       1.2362    2.0408    0.3907
 -174.27    6.53  -99.83     0.002000       1.2815    2.1709    0.3533
  -18.77    2.53   67.14     0.002000       1.0942    2.1104    0.4274
  -35.06    5.51   80.38     0.002000       1.5487    2.0821    0.3037
   95.05    2.08 -111.38     0.002000       1.5909    2.2191    0.2763
  102.73    0.00    0.00     0.002000       1.6768    2.1404    0.2716
  -92.54    6.16  100.67     0.002000       1.2767    2.1756    0.3538
   44.39    6.54  -80.54     0.002000       1.2417    2.2246    0.3558
  145.78    4.68  -81.56     0.002000       1.3165    2.3167    0.3212
 -172.69    6.98  -89.91     0.002000       1.2205    2.3361    0.3443
  -15.13    8.28   91.07     0.002000       1.1659    2.2681    0.3721
  -18.74    0.00    0.00     0.002000       1.0147    2.2740    0.4273
 -128.06    7.12   89.58     0.002000       1.0688    2.2587    0.4083
   90.34    1.95 -106.39     0.002000       1.0493    2.2179    0.4238
 -166.69    7.88  -90.37     0.002000       1.0941    2.2405    0.4020
  162.29    7.44  -97.53     0.002000       1.2309    2.2152    0.3606
  -62.55    7.06   86.03     0.002000       1.2156    2.3405    0.3450
  -54.69    0.89  115.33     0.002000       1.0192    2.2379    0.4325
    3.63    1.54  107.27     0.002000       1.5033    2.2821    0.2845
 -149.53    8.02  -86.43     0.002000       1.1775    2.2299    0.3747
    3.26    5.42   73.04     0.002000       1.3129    2.0201    0.3712
   70.48    5.30  -86.00     0.002000       1.5055    2.0387    0.3195
  -52.22    1.71  102.91     0.002000       1.0208    2.2455    0.4303
   20.69    4.90   75.35     0.002000       1.3549    2.1670    0.3342
  104.84    4.74  -74.66     0.002000       1.3663    2.2165    0.3237
  113.32    7.73  -93.78     0.002000       1.1429    2.2617    0.3808
   41.48    5.34  -78.59     0.002000       1.2793    2.3163    0.3309
   48.54    7.38  -92.94     0.002000       1.1711    2.2386    0.3753
  157.81    3.94  -72.68     0.002000       1.1315    2.0570    0.4241
  133.27    3.59  -87.68     0.002000       1.0525    2.2132    0.4234
  104.24    0.00    0.00     0.002000       1.5487    2.2471    0.2803
   33.81    7.99   90.07     0.002000       1.1299    2.2596    0.3856
   72.14    3.37  -89.10     0.002000       1.2799    2.4269    0.3150
  -34.47    5.16   85.83     0.002000       1.2578    2.3627    0.3298
 -141.05    2.04   97.57     0.002000       1.4366    2.3450    0.2899
 -133.99    8.36  -92.57     0.002000       1.1626    2.2436    0.3773
   78.87    2.71  -85.92     0.002000       1.0232    2.2767    0.4232
  -78.71    8.63   90.61     0.002000       1.1334    2.2811    0.3807
  -16.72    4.64  105.61     0.002000       1.1329    2.0952    0.4156
  112.56    5.90  -89.23     0.002000       1.0864    2.2375    0.4054
 -117.12    3.30  110.03     0.002000       1.6076    2.1869    0.2776
   -1.51    3.06   68.52     0.002000       1.4633    2.2647    0.2949
  -51.11    8.15   93.66     0.002000       1.1788    2.2525    0.3705
  -40.91    7.69   90.55     0.002000       1.0932    2.2429    0.4019
 -100.49    7.21   90.09     0.002000       1.2054    2.3660    0.3441
   63.30    6.22  -93.43     0.002000       1.2235    2.3470    0.3417
 -109.77    3.25  106.20     0.002000       1.0722    2.1788    0.4222
   89.35    4.81  -91.50     0.002000       1.0446    2.2759    0.4146
 -150.19    8.42  -90.04     0.002000       1.1060    2.2472    0.3964
  130.46    4.87  -73.29     0.002000       1.5135    2.1260    0.3042
  175.15    1.46  -82.95     0.002000       1.8332    2.0083    0.2646
  178.47    0.97  -90.31     0.002000       1.5666    2.2313    0.2791
   12.42    6.72   90.98     0.002000       1.0762    2.2367    0.4095
  -50.32    1.33   71.77     0.002000       1.0413    2.2182    0.4270
   19.22    4.93  105.48     0.002000       1.3238    2.2685    0.3264
 -113.40    5.21   95.73     0.002000       1.6259    2.0957    0.2869
   12.76    6.66   96.49     0.002000       1.2309    2.2958    0.3475
  -85.87    5.46  103.09     0.002000       1.3218    2.2305    0.3327
  102.11    3.78  -84.80     0.002000       1.2933    2.3981    0.3156
  100.61    4.45  -85.19     0.002000       1.0734    2.2170    0.4143
  117.46    5.69  -96.12     0.002000       1.1090    2.2074    0.4026
   91.59    1.45  -96.08     0.002000       1.8127    2.0349    0.2641
   33.31    6.85   98.74     0.002000       1.2360    2.2415    0.3547
  -32.82    8.34   90.65     0.002000       1.1702    2.2760    0.3693
 -144.94    4.63  111.37     0.002000       1.5332    2.1746    0.2933
 -107.38    7.59   93.91     0.002000       1.1609    2.2421    0.3781
  118.61    0.00    0.00     0.002000       1.8640    1.9813    0.2637
   81.39    2.28  -70.39     0.002000       1.4831    2.2989    0.2863
 -125.80    3.60  108.41     0.002000       1.4068    2.3220    0.2993
  -17.16    1.93   94.86     0.002000       1.3936    2.3561    0.2976
  -69.86    6.84   96.66     0.002000       1.1907    2.1789    0.3794
   10.89    5.77  103.25     0.002000       1.3015    2.1978    0.3433
  137.13    2.12 -108.50     0.002000       1.4567    2.3178    0.2892
 -135.65    3.79  112.15     0.002000       1.4574    2.2699    0.2955
  -34.41    4.89   98.93     0.002000       1.2904    2.3241    0.3268
  175.47    4.00 -109.30     0.002000       1.4013    2.2728    0.3073
  137.63    1.27  -93.74     0.002000       1.4728    2.3129    0.2866
 -161.25    2.13  -87.56     0.002000       1.4116    2.3524    0.2942
 -131.07    4.15   88.98     0.002000       1.0296    2.2532    0.4251
 -160.61    7.33  -84.26     0.002000       1.2251    2.1996    0.3650
  116.43    5.68  -91.76     0.002000       1.2257    2.3834    0.3357
  143.58    1.35  -91.88     0.002000       1.4875    2.2999    0.2853
  -32.61    5.48   76.12     0.002000       1.3265    2.1674    0.3415
  156.92    7.13  -98.86     0.002000       1.2494    2.2261    0.3533
  -97.52    6.60   84.88     0.002000       1.1331    2.2012    0.3950
  -38.96    5.65  107.46     0.002000       1.3206    2.0375    0.3657
  -71.02    4.01   85.52     0.002000       1.2818    2.4141    0.3163
  -97.51    3.28   90.68     0.002000       1.3006    2.4313    0.3093
  -58.77    3.33   87.87     0.002000       1.2997    2.4122    0.3121
   92.02    7.90  -91.79     0.002000       1.1679    2.3138    0.3638
  139.42    8.51  -90.61     0.002000       1.1589    2.2718    0.3737
  -13.98    1.04  132.56     0.002000       1.0564    2.1795    0.4285
  168.50    6.82  -83.35     0.002000       1.2583    2.1770    0.3589
   89.17    1.96  -90.58     0.002000       1.0188    2.2716    0.4261
  -59.34    6.64   87.96     0.002000       1.1084    2.2322    0.3982
  176.72    6.36 -101.87     0.002000       1.2536    2.0985    0.3742
 -148.00    2.23  -90.99     0.002000       1.0294    2.2378    0.4282
   69.87    5.54  -95.80     0.002000       1.2488    2.3500    0.3342
  177.88    2.51  -86.03     0.002000       1.3908    2.3540    0.2985
  165.51    7.62  -87.90     0.002000       1.1676    2.2048    0.3824
  163.06    4.75  -94.11     0.002000       1.0407    2.2374    0.4236
   71.54    7.58  -88.73     0.002000       1.1075    2.2785    0.3902
   -3.50    5.53  107.07     0.002000       1.3042    2.0593    0.3664
  151.04    8.35  -93.27     0.002000       1.1792    2.2768    0.3663
   79.35    5.77  -90.46     0.002000       1.2178    2.3905    0.3369
  119.85    7.77  -91.20     0.002000       1.0992    2.2588    0.3967
    8.08    4.68  110.21     0.002000       1.3761    2.1939    0.3247
 -130.98    4.90  -95.11     0.002000       1.0713    2.2060    0.4173
   38.66    6.77   94.31     0.002000       1.1472    2.2243    0.3859
  177.01    5.06 -108.30     0.002000       1.3762    2.1017    0.3395
 -173.23    5.66  -90.64     0.002000       1.0585    2.2317    0.4174
 -160.35    5.31 -113.35     0.002000       1.2712    1.9209    0.4041
  -29.44    1.43   99.51     0.002000       1.0302    2.2251    0.4303
 -108.17    4.60   92.62     0.002000       1.0327    2.2737    0.4199
  172.55    7.06  -83.86     0.002000       1.2543    2.2565    0.3470
  -40.60    8.43   91.79     0.002000       1.1433    2.2555    0.3817
  124.97    5.47  -73.75     0.002000       1.2258    1.9986    0.4026
 -154.14    4.22  -73.08     0.002000       1.1242    2.0880    0.4204
 -107.93    4.20   79.26     0.002000       1.0792    2.1774    0.4197
   49.71    6.22   84.00     0.002000       1.1873    2.1659    0.3829
 -100.15    5.93   87.59     0.002000       1.2323    2.3929    0.3324
   45.09    4.35   86.21     0.002000       1.2729    2.3775    0.3237
  -66.93    0.95  147.57     0.002000       1.0578    2.1666    0.4306
   47.91    7.85  -87.50     0.002000       1.1313    2.2696    0.3834
 -120.72    8.41   88.01     0.002000       1.1475    2.2579    0.3799
 -112.08    6.77   82.26     0.002000       1.2612    2.2095    0.3526
  -12.21    4.15  106.78     0.002000       1.6584    2.0902    0.2818
   37.24    0.00    0.00     0.002000       1.0313    2.2281    0.4293
  -13.47    6.22   84.14     0.002000       1.1795    2.1522    0.3880
  -58.90    4.41  111.80     0.002000       1.4434    2.1540    0.3151
  116.02    5.48  -90.24     0.002000       1.0489    2.2591    0.4160
  -23.57    3.06   78.48     0.002000       1.3664    2.3474    0.3049
  126.49    6.21  -81.02     0.002000       1.2452    2.1108    0.3745
   55.04    7.04  -94.62     0.002000       1.2021    2.2285    0.3671
   14.81    4.81   74.56     0.002000       1.3634    2.1453    0.3355
   24.91    4.24   69.44     0.002000       1.4222    2.1813    0.3158
 -135.87    2.99   93.45     0.002000       1.0226    2.2556    0.4276
 -159.18    8.03  -87.38     0.002000       1.2043    2.2984    0.3550
   54.68    6.45  -85.91     0.002000       1.1329    2.2304    0.3897
  -30.74    6.52   82.27     0.002000       1.2561    2.2789    0.3430
 -156.40    6.90  -89.34     0.002000       1.2220    2.3449    0.3425
   12.66    0.00    0.00     0.002000       1.7561    2.0869    0.2658
   48.01    7.47  -87.61     0.002000       1.1871    2.3194    0.3569
  130.94    0.87  -97.68     0.002000       1.6080    2.2101    0.2743
   18.79    3.51  115.75     0.002000       1.5790    2.1746    0.2844
  107.28    4.01 -112.14     0.002000       1.4200    2.2565    0.3054
    3.44    0.00    0.00     0.002000       1.8091    2.0437    0.2634
   16.22    6.67   93.94     0.002000       1.1381    2.2100    0.3916
 -137.37    2.96  -96.61     0.002000       1.0434    2.2191    0.4260
   22.90    1.12   95.26     0.002000       1.0262    2.2400    0.4291
 -141.41    1.44  -91.29     0.002000       1.0233    2.2463    0.4291
 -109.53    3.56   87.21     0.002000       1.0243    2.2683    0.4244
   10.02    3.90   81.47     0.002000       1.7055    2.0623    0.2776
   83.45    4.80  -95.86     0.002000       1.2597    2.3853    0.3261
   38.67    5.65  -75.96     0.002000       1.3025    2.2090    0.3412
 -145.73    7.73  -85.56     0.002000       1.2171    2.3000    0.3509
  102.03    4.06  -92.82     0.002000       1.2622    2.4182    0.3208
  178.22    7.40  -97.42     0.002000       1.2436    2.2392    0.3529
 -140.77    2.14 -102.39     0.002000       1.5935    2.2170    0.2761
   57.71    4.79  -94.18     0.002000       1.2596    2.3758    0.3275
  -92.50    6.24   76.89     0.002000       1.2025    2.0861    0.3928
  -11.92    5.28   90.88     0.002000       1.2421    2.3632    0.3341
   52.19    0.90  -85.99     0.002000       1.4766    2.3197    0.2849
  151.65    2.69  -91.17     0.002000       1.0289    2.2371    0.4286
  -58.69    6.36   79.71     0.002000       1.2724    2.2101    0.3493
 -100.98    1.45  104.64     0.002000       1.7287    2.1179    0.2661
   78.24    7.58  -85.43     0.002000       1.1871    2.2986    0.3602
   27.46    7.60   95.53     0.002000       1.1920    2.2559    0.3657
   15.79    1.03  109.95     0.002000       1.7323    2.1001    0.2678
  -58.32    3.61   98.42     0.002000       1.3266    2.3698    0.3113
 -117.04    4.11   90.89     0.002000       1.0282    2.2639    0.4236
   32.61    7.93   88.59     0.002000       1.1714    2.2749    0.3691
   74.79    3.90  -93.48     0.002000       1.2744    2.4108    0.3186
  161.53    7.16  -98.53     0.002000       1.2462    2.2098    0.3569
   24.30    4.08   68.54     0.002000       1.5388    2.1611    0.2940
   57.46    7.06  -82.67     0.002000       1.2113    2.2521    0.3603
 -101.85    6.75   94.38     0.002000       1.1302    2.2201    0.3925
  127.04    8.34  -89.46     0.002000       1.1618    2.2775    0.3718
    8.67    4.49   71.14     0.002000       1.3966    2.0934    0.3357
   95.67    1.16 -117.11     0.002000       1.0451    2.2175    0.4256
 -178.70    7.71  -92.18     0.002000       1.2070    2.3092    0.3524
   15.91    8.00   88.97     0.002000       1.1443    2.2489    0.3825
  -30.18    2.34   96.16     0.002000       1.0285    2.2362    0.4289
  -85.73    1.89   75.93     0.002000       1.5189    2.2916    0.2803
    4.59    7.55   86.78     0.002000       1.2041    2.2700    0.3596
  -98.89    6.75   81.99     0.002000       1.2115    2.1640    0.3754
  143.63    5.72 -108.70     0.002000       1.3012    2.0476    0.3695
  -30.97    0.97   88.66     0.002000       1.0204    2.2414    0.4313
  -22.30    2.07   90.70     0.002000       1.0231    2.2336    0.4317
  172.49    2.32 -145.10     0.002000       1.1557    1.9762    0.4325
  131.91    2.23 -113.42     0.002000       1.6999    2.1219    0.2703
  137.57    4.86  -83.80     0.002000       1.2922    2.3367    0.3245
   68.22    0.00    0.00     0.002000       1.7936    2.0464    0.2654
   70.61    3.82  -68.83     0.002000       1.4156    2.2780    0.3033
   58.24    4.93  -84.78     0.002000       1.0889    2.2205    0.4076
  128.99    6.34  -91.16     0.002000       1.0666    2.2520    0.4104
 -115.82    4.70   72.03     0.002000       1.4107    2.1839    0.3180
   45.99    0.83  -76.15     0.002000       1.5861    2.2298    0.2757
   -4.50    3.00  109.73     0.002000       1.7161    2.0823    0.2730
  163.58    8.67  -91.86     0.002000       1.1655    2.2672    0.3723
  156.50    4.58  -71.03     0.002000       1.4312    2.0971    0.3268
  -27.73    7.05   84.52     0.002000       1.2120    2.2063    0.3679
   -9.66    8.33   90.86     0.002000       1.1533    2.2586    0.3778
  111.03    7.66  -90.28     0.002000       1.1852    2.3255    0.3565
 -161.14    1.04  -80.72     0.002000       1.0184    2.2451    0.4314
  140.42    2.90 -100.21     0.002000       1.3542    2.3720    0.3044
  -83.16    2.83  108.54     0.002000       1.6088    2.1932    0.2765
  -30.67    7.97   92.53     0.002000       1.1362    2.2374    0.3874
  -73.24    3.30   88.72     0.002000       1.0267    2.2686    0.4233
   90.94    6.01 -100.50     0.002000       1.2127    2.1443    0.3786
  -65.83    6.19   92.76     0.002000       1.2297    2.3634    0.3375
    2.78    4.22   91.53     0.002000       1.0384    2.2333    0.4253
 -100.87    2.75   81.68     0.002000       1.3732    2.3877    0.2980
   87.99    4.71  -76.22     0.002000       1.3281    2.2963    0.3213
 -172.70    7.49  -93.23     0.002000       1.1430    2.2048    0.3909
   86.36    7.53  -86.45     0.002000       1.1581    2.2651    0.3750
  127.11    8.11  -87.78     0.002000       1.1761    2.2586    0.3703
   88.73    7.32  -90.52     0.002000       1.0917    2.2770    0.3962
  178.03    4.25  -98.63     0.002000       1.0722    2.1804    0.4219
   35.90    7.28   94.53     0.002000       1.1607    2.2368    0.3791
 -162.08    8.05  -87.10     0.002000       1.1718    2.2241    0.3777
  -74.63    6.00   88.76     0.002000       1.0776    2.2493    0.4066
    2.65    0.00    0.00     0.002000       1.8661    1.9883    0.2625
    8.13    0.00    0.00     0.002000       1.0150    2.2751    0.4270
  101.43    5.31  -70.66     0.002000       1.2573    1.9707    0.3980
  -39.15    6.82   85.81     0.002000       1.1671    2.1982    0.3838
   31.36    7.88   88.40     0.002000       1.1761    2.2759    0.3674
  -24.62    3.78  107.38     0.002000       1.3745    2.2919    0.3107
   42.25    7.41   90.04     0.002000       1.1900    2.3173    0.3563
  163.89    3.32 -103.25     0.002000       1.3689    2.3404    0.3053
  126.79    2.23 -103.97     0.002000       1.0455    2.2214    0.4247
  165.92    3.54 -113.79     0.002000       1.6044    2.1590    0.2819
   36.95    6.17  -81.27     0.002000       1.2074    2.1743    0.3749
   73.24    3.39  -87.04     0.002000       1.0292    2.2753    0.4210
  -20.78    4.38   95.16     0.002000       1.0658    2.2051    0.4196
   96.41    1.41  -77.56     0.002000       1.0374    2.2305    0.4262
  -75.84    5.85   77.72     0.002000       1.3033    2.1817    0.3454
   79.65    7.16  -86.02     0.002000       1.1989    2.3328    0.3512
 -121.37    6.02   89.73     0.002000       1.0485    2.2598    0.4161
  115.04    4.75  -97.77     0.002000       1.2682    2.3793    0.3247
 -153.46    6.11 -100.95     0.002000       1.3119    2.1872    0.3422
 -105.47    8.22   86.38     0.002000       1.1825    2.2660    0.3670
  121.36    3.01  -88.43     0.002000       1.0256    2.2559    0.4263
 -168.85    8.19  -90.69     0.002000       1.0978    2.2375    0.4012
 -134.45    7.71   90.72     0.002000       1.0972    2.2540    0.3984
   40.40    6.71  -82.02     0.002000       1.2191    2.2183    0.3636
   -5.31    3.24   95.76     0.002000       1.0326    2.2381    0.4268
  -70.75    6.49   90.22     0.002000       1.0685    2.2629    0.4076
  -34.22    5.13  104.69     0.002000       1.3357    2.2184    0.3310
   82.72    4.39 -110.93     0.002000       1.4663    2.1661    0.3082
    6.36    0.00    0.00     0.002000       1.5015    2.3006    0.2824
  -50.29    8.53   90.11     0.002000       1.1358    2.2622    0.3831
 -172.18    7.09  -93.05     0.002000       1.1236    2.2029    0.3981
 -150.08    7.00  -97.52     0.002000       1.2627    2.2462    0.3462
 -146.59    8.32  -86.28     0.002000       1.1965    2.2789    0.3605
 -171.96    5.90  -88.61     0.002000       1.0886    2.2025    0.4112
  122.69    0.00    0.00     0.002000       1.6996    2.1279    0.2695
  -87.67    4.89   95.40     0.002000       1.0694    2.2271    0.4139
   14.65    1.13   94.99     0.002000       1.4607    2.3173    0.2884
  -23.22    4.63   96.94     0.002000       1.0794    2.1879    0.4176
  -30.80    4.87   89.96     0.002000       1.0464    2.2392    0.4209
  117.20    4.78 -108.95     0.002000       1.4644    2.0718    0.3233
  -82.70    5.16   77.27     0.002000       1.3169    2.3085    0.3223
 -148.62    5.85  -90.09     0.002000       1.0477    2.2424    0.4197
  173.43    6.38  -80.82     0.002000       1.2975    2.1889    0.3458
  106.02    4.26  -69.83     0.002000       1.4614    2.1954    0.3050
 -142.76    5.54 -102.90     0.002000       1.3407    2.2026    0.3322
  166.52    8.61  -90.36     0.002000       1.1273    2.2437    0.3894
  -70.12    4.81   70.75     0.002000       1.3915    2.1159    0.3333
  -33.54    5.87   92.09     0.002000       1.0589    2.2408    0.4155
  -92.14    4.23   91.37     0.002000       1.0290    2.2712    0.4219
 -124.24    6.80   99.42     0.002000       1.2657    2.2400    0.3464
   34.34    1.87  -68.26     0.002000       1.7557    2.0758    0.2674
  -70.23    5.70   69.37     0.002000       1.3293    1.9857    0.3731
 -147.47    2.42  -89.52     0.002000       1.0213    2.2444    0.4303
   82.98    5.84  -88.56     0.002000       1.0834    2.2577    0.4028
  112.13    2.47  -82.68     0.002000       1.3807    2.3679    0.2989
   73.72    4.13  -75.92     0.002000       1.3291    2.3439    0.3142
  121.69    4.30  -73.84     0.002000       1.3910    2.2452    0.3136
  -93.76    6.25   89.45     0.002000       1.0552    2.2755    0.4104
  -56.20    5.50   81.10     0.002000       1.5149    2.0782    0.3112
 -126.51    1.65   92.92     0.002000       1.8299    2.0214    0.2633
   77.39    5.63  -90.78     0.002000       1.0731    2.2612    0.4061
 -162.51    5.08  -86.58     0.002000       1.2699    2.3703    0.3255
   19.96    4.10   71.25     0.002000       1.3990    2.2303    0.3139
  -38.75    3.50   67.88     0.002000       1.4400    2.2832    0.2973
  142.75    3.11  -94.95     0.002000       1.0263    2.2415    0.4288
  175.47    3.49 -109.82     0.002000       1.4243    2.2852    0.3005
  157.35    3.82  -84.82     0.002000       1.0675    2.1795    0.4240
  153.27    7.26  -90.85     0.002000       1.0945    2.2331    0.4032
   85.60    7.14  -95.97     0.002000       1.2124    2.2856    0.3545
  172.83    5.37 -105.32     0.002000       1.3425    2.2179    0.3294
  157.74    5.90 -103.59     0.002000       1.2990    2.1261    0.3560
  132.54    4.84 -111.10     0.002000       1.1783    2.0376    0.4109
   99.03    6.20 -100.42     0.002000       1.2658    2.2571    0.3436
  -84.93    3.24   69.79     0.002000       1.4715    2.2899    0.2899
  161.94    4.69 -112.82     0.002000       1.4631    2.1019    0.3187
  -56.15    7.89   89.49     0.002000       1.1047    2.2591    0.3947
  -69.30    7.33   82.78     0.002000       1.2284    2.2586    0.3541
   74.45    5.49  -79.98     0.002000       1.2697    2.3288    0.3316
  145.72    6.07 -102.64     0.002000       1.2700    2.1325    0.3632
 -113.16    4.84   90.28     0.002000       1.0450    2.2615    0.4172
    7.94    7.42   91.20     0.002000       1.1962    2.3060    0.3562
 -150.21    2.35  -76.91     0.002000       1.7989    2.0363    0.2660
   40.72    4.52   92.94     0.002000       1.0411    2.2540    0.4202
  159.98    3.89  -90.67     0.002000       1.0314    2.2332    0.4283
 -137.91    7.28  -89.79     0.002000       1.0853    2.2503    0.4035
   80.82    5.72  -82.51     0.002000       1.1392    2.1821    0.3963
  170.40    3.43  -71.80     0.002000       1.4459    2.2754    0.2971
  -20.92    7.96   88.24     0.002000       1.1477    2.2383    0.3833
  143.80    6.43  -90.45     0.002000       1.0906    2.2228    0.4066
  177.29    5.67  -98.45     0.002000       1.5800    2.0643    0.3001
  175.95    5.28  -96.82     0.002000       1.2762    2.3411    0.3281
   78.40    2.76  -86.33     0.002000       1.0241    2.2770    0.4228
  161.63    5.59  -83.37     0.002000       1.5436    2.0606    0.3080
   82.93    6.65  -82.17     0.002000       1.2329    2.2355    0.3565
  178.27    5.60 -105.42     0.002000       1.3366    2.0957    0.3509
  100.60    5.90  -99.56     0.002000       1.1636    2.1613    0.3917
 -136.01    1.36  -91.71     0.002000       1.5650    2.2507    0.2769
  -75.80    7.65   94.40     0.002000       1.1830    2.2386    0.3715
   23.24    2.62   94.96     0.002000       1.0262    2.2427    0.4286
  150.72    3.22  -71.54     0.002000       1.4738    2.2600    0.2934
  -12.55    1.77  110.14     0.002000       1.7518    2.0756    0.2680
  -76.06    6.72   97.49     0.002000       1.1908    2.1688    0.3812
   18.14    2.33   74.09     0.002000       1.6295    2.1699    0.2759
   27.04    7.12   86.39     0.002000       1.1912    2.2143    0.3730
  -11.67    3.49  108.60     0.002000       1.3868    2.2989    0.3069
 -138.67    4.14   99.32     0.002000       1.3201    2.3729    0.3124
   24.59    3.59  105.89     0.002000       1.3506    2.3381    0.3099
 -137.49    7.86  -89.93     0.002000       1.0888    2.2544    0.4014
  -19.04    2.86  115.54     0.002000       1.5567    2.2068    0.2842
  -75.99    1.52   89.81     0.002000       1.0163    2.2662    0.4282
  -57.79    8.45   90.15     0.002000       1.1228    2.2621    0.3877
 -122.68    2.57   90.89     0.002000       1.7916    2.0451    0.2660
  114.03    6.26  -83.38     0.002000       1.1746    2.1513    0.3899
   70.34    5.26  -74.75     0.002000       1.1757    2.0892    0.4014
  152.95    5.40  -95.39     0.002000       1.2561    2.3563    0.3312
