MORPHOLOGY AT STRAIN =    0.0085  FOR PHASE  1
   1.004   1.007   0.989  <-- AXES OF PHASE ELLIPSOID
    0.19    0.00    0.00  <-- EULER ANGLES OF PHASE ELLIPSOID (deg)
   1.003   1.010   0.988  <-- AVERAGE OF GRAIN AXES FOR PHASE
   0.001   0.003   0.004  <-- STANDARD DEV OF AVG GRAIN AXES FOR PHASE
B      1148
  154.12   11.53  -68.94     0.000000       1.0001    1.0008    0.9992
    0.68    0.00    0.00     0.000000       1.0044    1.0111    0.9848
   90.04    0.00    0.00     0.000000       1.0038    1.0113    0.9851
  -21.24   13.70   -1.65     0.000000       1.0029    1.0109    0.9863
  -89.09   28.02  177.19     0.000145       1.0000    1.0017    0.9983
  -35.53   30.10  159.89     0.000161       1.0001    1.0016    0.9983
  -26.02   31.43  159.60     0.000850       1.0003    1.0014    0.9983
  -17.41   32.62  162.09     0.000146       1.0005    1.0013    0.9982
  -85.25   30.96  177.40     0.000338       1.0002    1.0047    0.9951
  -73.52   30.97  175.07     0.000403       1.0002    1.0047    0.9952
  -62.09   31.13  173.30     0.000062       1.0002    1.0046    0.9952
  -51.15   31.38  172.36     0.000355       1.0003    1.0046    0.9952
  -40.72   31.75  172.20     0.000441       1.0004    1.0045    0.9952
  -30.73   32.26  172.73     0.000782       1.0006    1.0044    0.9951
  -21.16   32.70   -5.81     0.000271       1.0008    1.0043    0.9950
  -73.61   26.62  176.21     0.000388       1.0006    1.0073    0.9921
  -62.63   26.73  174.95     0.000432       1.0006    1.0073    0.9922
  -51.98   26.89  174.28     0.000764       1.0007    1.0072    0.9922
  -41.65   27.11  174.19     0.000633       1.0008    1.0071    0.9921
  -21.79   27.70   -4.52     0.000402       1.0012    1.0069    0.9920
  -73.50   21.43  176.52     0.000389       1.0012    1.0093    0.9895
  -62.63   21.53  175.38     0.000702       1.0013    1.0093    0.9895
  -52.04   21.66  174.76     0.000649       1.0013    1.0092    0.9896
  -21.75   22.25   -4.29     0.000440       1.0018    1.0090    0.9894
  -12.04   22.40   -3.23     0.000541       1.0019    1.0089    0.9893
  -73.26   16.29  176.50     0.000063       1.0019    1.0107    0.9875
  -62.37   16.38  175.31     0.000250       1.0020    1.0107    0.9875
  -51.76   16.50  174.68     0.000058       1.0020    1.0106    0.9875
  -11.55   17.07   -3.59     0.000854       1.0026    1.0103    0.9872
  -84.32   11.43  178.29     0.000065       1.0026    1.0115    0.9861
  -73.01   11.50  176.39     0.000089       1.0026    1.0114    0.9861
  -10.84   12.09   -4.08     0.000806       1.0032    1.0111    0.9859
   -1.15   12.08   -3.14     0.000123       1.0032    1.0111    0.9859
  -84.87    7.20  179.05     0.000250       1.0032    1.0117    0.9854
   -9.75    7.71   -4.89     0.000444       1.0037    1.0114    0.9852
    0.10    7.72   -4.17     0.000677       1.0037    1.0113    0.9851
  -87.04    3.75 -178.59     0.000006       1.0036    1.0115    0.9851
  -74.83    3.76  178.46     0.000388       1.0036    1.0115    0.9851
  -62.89    3.79  176.12     0.000412       1.0036    1.0115    0.9851
   -7.69    4.07   -6.65     0.000165       1.0040    1.0113    0.9849
    2.66    4.09   -6.51     0.001189       1.0041    1.0113    0.9848
 -102.61    1.03 -162.89     0.000200       1.0038    1.0113    0.9850
  -45.03    0.95  178.78     0.000182       1.0039    1.0112    0.9850
    1.68    1.07  -15.86     0.000021       1.0042    1.0111    0.9848
   15.15    1.13  -18.86     0.001447       1.0043    1.0111    0.9848
  -50.62   28.79  167.78     0.000159       1.0000    1.0016    0.9983
  -38.20   30.35  163.33     0.000795       1.0002    1.0015    0.9983
  -27.60   31.87  161.10     0.000143       1.0004    1.0014    0.9982
  -86.09   30.72  178.62     0.000408       1.0001    1.0047    0.9952
  -74.70   30.77  176.80     0.000067       1.0001    1.0047    0.9952
  -63.58   30.95  175.48     0.000416       1.0002    1.0046    0.9952
  -52.75   31.27  174.68     0.000419       1.0002    1.0046    0.9952
  -41.74   31.84  173.62     0.000260       1.0004    1.0045    0.9951
  -31.32   32.38  173.55     0.000273       1.0006    1.0043    0.9950
  -85.21   26.42  178.44     0.000466       1.0006    1.0073    0.9921
  -74.28   26.47  177.12     0.000546       1.0006    1.0073    0.9922
  -63.53   26.61  176.17     0.000651       1.0006    1.0073    0.9922
  -53.07   26.80  175.77     0.000354       1.0007    1.0072    0.9922
  -31.96   27.47   -4.97     0.000392       1.0010    1.0070    0.9920
  -21.87   27.75   -4.47     0.000555       1.0012    1.0069    0.9920
  -84.71   21.27  178.23     0.000360       1.0012    1.0094    0.9896
  -73.89   21.32  177.00     0.000493       1.0011    1.0094    0.9896
  -63.23   21.44  176.12     0.000456       1.0012    1.0093    0.9896
  -21.74   22.27   -4.37     0.000629       1.0018    1.0090    0.9894
  -11.76   22.42   -3.69     0.000219       1.0019    1.0089    0.9893
  -73.37   16.21  176.58     0.000192       1.0018    1.0107    0.9876
  -21.20   16.98   -4.76     0.000068       1.0024    1.0104    0.9874
  -11.20   17.07   -4.13     0.000626       1.0025    1.0103    0.9873
  -83.54   11.45  177.30     0.000161       1.0026    1.0115    0.9861
  -72.61   11.50  175.84     0.000007       1.0026    1.0114    0.9862
  -10.89   12.06   -4.13     0.000486       1.0031    1.0111    0.9860
  -41.38    7.54  174.84     0.000111       1.0033    1.0115    0.9854
  -10.40    7.71   -4.33     0.000295       1.0036    1.0113    0.9853
  -84.94    3.84  179.09     0.000338       1.0036    1.0115    0.9851
  -73.68    3.85  177.11     0.000381       1.0036    1.0115    0.9851
  -62.79    3.88  175.85     0.000463       1.0036    1.0115    0.9851
  -42.48    3.97  176.05     0.000146       1.0038    1.0114    0.9850
   -9.82    4.10   -4.64     0.000116       1.0040    1.0113    0.9849
    0.82    4.12   -4.81     0.000001       1.0040    1.0113    0.9849
  -94.20    1.09 -171.50     0.000189       1.0039    1.0113    0.9850
   -9.15    1.11   -5.20     0.000144       1.0042    1.0111    0.9849
    6.04    1.16   -9.93     0.000088       1.0042    1.0111    0.9849
  -67.74   28.18  177.76     0.000155       1.0000    1.0017    0.9983
  -52.08   29.43  169.25     0.000744       1.0002    1.0015    0.9983
  -38.92   31.01  162.99     0.000141       1.0003    1.0014    0.9983
    1.31   35.53  -12.52     0.000160       1.0009    1.0011    0.9980
  -87.67   30.64 -179.19     0.000070       1.0001    1.0047    0.9952
  -76.50   30.74  179.29     0.000429       1.0001    1.0047    0.9952
  -65.53   30.98  178.20     0.000402       1.0002    1.0046    0.9952
  -42.17   32.01  174.11     0.000291       1.0005    1.0044    0.9951
  -31.39   32.54  173.50     0.000157       1.0007    1.0043    0.9950
   -1.32   33.52   -3.55     0.000507       1.0011    1.0041    0.9948
  -86.27   26.33  179.79     0.000587       1.0005    1.0074    0.9922
  -75.48   26.42  178.67     0.000569       1.0005    1.0073    0.9922
  -64.84   26.59  177.88     0.000072       1.0006    1.0073    0.9922
  -42.80   27.20  175.63     0.000199       1.0009    1.0071    0.9921
  -32.12   27.53   -4.85     0.000574       1.0011    1.0070    0.9920
  -21.77   27.80   -4.72     0.000109       1.0012    1.0069    0.9920
   -1.68   28.11   -3.29     0.001149       1.0014    1.0068    0.9918
  -85.54   21.17  179.19     0.000318       1.0011    1.0094    0.9896
  -74.85   21.26  178.13     0.000456       1.0011    1.0094    0.9896
  -32.14   22.09   -4.53     0.000062       1.0016    1.0090    0.9895
  -21.73   22.28   -4.52     0.000321       1.0018    1.0090    0.9894
   -1.79   22.43   -3.11     0.002138       1.0019    1.0089    0.9893
  -74.15   16.15  177.40     0.000003       1.0018    1.0107    0.9876
  -63.57   16.28  176.59     0.000018       1.0018    1.0107    0.9876
  -21.22   16.98   -4.89     0.000138       1.0024    1.0104    0.9874
  -11.52   16.99   -3.90     0.000443       1.0024    1.0103    0.9874
   -2.02   16.95   -2.67     0.003654       1.0025    1.0103    0.9874
  -83.92   11.38  177.57     0.000146       1.0025    1.0115    0.9862
  -31.64   11.94   -4.70     0.000085       1.0029    1.0112    0.9861
  -21.54   12.00   -4.21     0.000034       1.0030    1.0111    0.9861
  -11.72   12.02   -3.39     0.000972       1.0030    1.0111    0.9861
   -2.11   11.99   -2.37     0.005571       1.0030    1.0111    0.9861
  -61.56    7.42  174.33     0.000174       1.0032    1.0116    0.9854
  -32.67    7.63   -3.41     0.000208       1.0034    1.0114    0.9854
  -22.22    7.69   -3.23     0.000323       1.0035    1.0114    0.9853
  -12.11    7.71   -2.73     0.001533       1.0035    1.0113    0.9853
   -2.27    7.70   -2.03     0.008002       1.0036    1.0113    0.9853
  -82.23    3.89  176.02     0.000394       1.0036    1.0115    0.9851
  -71.90    3.90  175.01     0.000054       1.0036    1.0115    0.9851
  -52.68    3.98  175.52     0.000011       1.0037    1.0114    0.9850
  -35.36    4.06   -0.59     0.000060       1.0038    1.0113    0.9850
  -24.54    4.10   -0.71     0.000508       1.0039    1.0113    0.9850
  -13.56    4.12   -1.09     0.001875       1.0039    1.0113    0.9850
   -2.99    4.14   -1.18     0.010560       1.0040    1.0112    0.9850
  -82.01    1.13  175.97     0.000147       1.0039    1.0113    0.9850
  -60.83    1.10 -176.38     0.000106       1.0040    1.0113    0.9849
  -49.03    1.15   13.02     0.000287       1.0041    1.0112    0.9849
  -40.09    1.17   14.84     0.000658       1.0041    1.0112    0.9849
  -23.57    1.17    8.93     0.002033       1.0042    1.0111    0.9849
   -8.13    1.19    3.94     0.012711       1.0042    1.0111    0.9849
  -85.00   28.62 -172.07     0.000152       1.0000    1.0017    0.9983
  -67.21   28.98  176.63     0.000701       1.0001    1.0016    0.9983
  -51.50   30.18  166.98     0.000140       1.0002    1.0015    0.9983
   -6.09   35.20  147.75     0.000162       1.0007    1.0012    0.9981
    3.44   35.62  -27.15     0.000959       1.0008    1.0011    0.9980
  -89.43   30.79 -176.76     0.000420       1.0001    1.0047    0.9952
  -78.30   30.95 -178.22     0.000384       1.0002    1.0047    0.9952
  -53.63   31.69  175.70     0.000303       1.0004    1.0045    0.9951
  -42.01   32.20  173.70     0.000326       1.0006    1.0044    0.9951
  -10.37   33.35   -6.49     0.000549       1.0010    1.0042    0.9949
   -0.44   33.48   -5.21     0.002815       1.0010    1.0042    0.9948
  -87.60   26.36 -178.51     0.000518       1.0005    1.0074    0.9922
  -42.93   27.29  175.68     0.000329       1.0009    1.0070    0.9921
  -32.07   27.58   -5.05     0.000157       1.0011    1.0070    0.9920
  -21.55   27.82   -5.16     0.000175       1.0012    1.0069    0.9920
  -11.29   27.98   -4.79     0.001264       1.0013    1.0068    0.9919
   -1.50   28.01   -3.68     0.004569       1.0014    1.0068    0.9919
  -86.75   21.15 -179.39     0.000401       1.0011    1.0094    0.9896
  -43.20   21.88  176.25     0.000104       1.0015    1.0091    0.9895
  -32.31   22.10   -4.47     0.000231       1.0016    1.0090    0.9895
  -21.72   22.28   -4.68     0.000898       1.0017    1.0090    0.9894
  -11.61   22.36   -4.18     0.002068       1.0018    1.0089    0.9894
   -2.37   22.29   -2.48     0.006236       1.0018    1.0089    0.9894
  -43.17   16.64  176.30     0.000100       1.0021    1.0105    0.9875
  -32.12   16.82   -4.53     0.000539       1.0022    1.0104    0.9875
  -21.85   16.91   -4.30     0.001585       1.0023    1.0104    0.9874
  -12.32   16.92   -3.10     0.002735       1.0024    1.0103    0.9874
   -2.98   16.87   -1.67     0.008053       1.0024    1.0103    0.9874
  -53.08   11.68  175.89     0.000066       1.0026    1.0113    0.9862
  -42.92   11.83  176.02     0.000018       1.0027    1.0113    0.9862
  -32.65   11.92   -3.78     0.001002       1.0028    1.0112    0.9861
  -22.70   11.97   -3.12     0.001955       1.0029    1.0111    0.9861
  -13.05   11.98   -2.09     0.002990       1.0030    1.0111    0.9861
   -3.63   11.95   -0.86     0.009874       1.0030    1.0111    0.9861
  -72.28    7.31  175.12     0.000307       1.0031    1.0116    0.9855
  -61.55    7.41  174.06     0.000114       1.0032    1.0116    0.9854
  -52.17    7.50  174.78     0.000314       1.0032    1.0115    0.9854
  -43.21    7.58  176.28     0.000013       1.0033    1.0115    0.9854
  -34.48    7.64   -1.75     0.000771       1.0034    1.0114    0.9853
  -24.23    7.69   -1.35     0.001812       1.0035    1.0114    0.9853
  -14.35    7.70   -0.60     0.002644       1.0035    1.0113    0.9853
   -4.76    7.69    0.37     0.011943       1.0035    1.0113    0.9853
  -79.59    3.89  173.01     0.000150       1.0035    1.0115    0.9851
  -52.38    3.99  174.87     0.000373       1.0037    1.0114    0.9850
  -44.27    4.04  177.25     0.000114       1.0038    1.0114    0.9850
  -36.52    4.09    0.25     0.000634       1.0039    1.0113    0.9850
  -28.42    4.12    2.94     0.001322       1.0039    1.0113    0.9850
  -17.81    4.14    2.94     0.002264       1.0039    1.0113    0.9850
   -7.61    4.15    3.23     0.013377       1.0040    1.0113    0.9850
  -69.23    1.17  162.81     0.000055       1.0038    1.0113    0.9850
  -63.38    1.13  166.16     0.000747       1.0039    1.0113    0.9850
  -58.79    1.10  171.15     0.000957       1.0039    1.0113    0.9849
  -55.12    1.10  177.51     0.000289       1.0040    1.0113    0.9849
  -51.90    1.11 -175.25     0.000316       1.0041    1.0112    0.9849
  -48.62    1.15   12.21     0.000661       1.0042    1.0112    0.9848
  -44.87    1.21   19.25     0.000822       1.0042    1.0112    0.9848
  -36.99    1.26   22.00     0.002160       1.0042    1.0112    0.9848
  -22.80    1.25   18.27     0.013719       1.0042    1.0111    0.9848
 -100.34   29.87 -163.74     0.000148       1.0001    1.0017    0.9983
  -82.48   29.18 -175.77     0.000670       1.0001    1.0016    0.9983
  -65.16   29.60  172.44     0.000141       1.0002    1.0015    0.9983
  -13.96   34.56  145.13     0.000164       1.0006    1.0013    0.9981
   -4.06   35.14  145.28     0.000938       1.0007    1.0012    0.9981
    5.55   35.31  150.60     0.000156       1.0007    1.0012    0.9981
  -90.72   31.15 -174.89     0.000361       1.0002    1.0047    0.9951
  -65.47   31.49  177.93     0.000311       1.0004    1.0045    0.9951
  -53.15   31.88  174.82     0.000391       1.0005    1.0045    0.9951
  -41.46   32.33  172.69     0.000009       1.0006    1.0044    0.9950
  -19.85   33.07  171.56     0.000529       1.0008    1.0042    0.9950
   -9.68   33.27   -7.68     0.002301       1.0009    1.0042    0.9949
   -0.27   33.25   -5.47     0.000411       1.0009    1.0042    0.9949
  -54.14   27.08  176.89     0.000221       1.0008    1.0071    0.9921
  -42.80   27.35  175.36     0.000137       1.0010    1.0070    0.9921
  -31.87   27.60   -5.45     0.000661       1.0011    1.0070    0.9920
  -21.31   27.80   -5.60     0.001048       1.0012    1.0069    0.9920
  -11.10   27.91   -5.15     0.002586       1.0013    1.0069    0.9919
   -2.21   27.83   -2.71     0.000679       1.0013    1.0069    0.9919
  -54.65   21.72  177.70     0.000331       1.0014    1.0092    0.9895
  -43.34   21.92  176.29     0.000631       1.0015    1.0091    0.9895
  -32.39   22.11   -4.51     0.001335       1.0016    1.0090    0.9895
  -21.75   22.25   -4.77     0.001300       1.0017    1.0090    0.9894
  -12.36   22.26   -3.30     0.001880       1.0018    1.0089    0.9894
   -3.27   22.21   -1.40     0.000899       1.0018    1.0089    0.9894
  -87.37   16.02 -178.75     0.000033       1.0017    1.0108    0.9876
  -43.58   16.65  176.63     0.000943       1.0021    1.0105    0.9875
  -32.46   16.80   -4.29     0.001337       1.0022    1.0104    0.9875
  -22.69   16.86   -3.43     0.001027       1.0023    1.0104    0.9874
  -13.32   16.87   -2.03     0.000950       1.0024    1.0103    0.9874
   -4.15   16.84   -0.39     0.000961       1.0024    1.0103    0.9874
  -64.77   11.50  177.55     0.000307       1.0025    1.0114    0.9862
  -54.06   11.66  176.80     0.000237       1.0026    1.0113    0.9862
  -43.66   11.82  176.66     0.000624       1.0028    1.0113    0.9861
  -33.62   11.91   -2.88     0.000641       1.0029    1.0112    0.9861
  -23.88   11.95   -1.97     0.000593       1.0030    1.0111    0.9861
  -14.44   11.97   -0.70     0.000308       1.0030    1.0111    0.9861
   -5.22   11.95    0.77     0.000803       1.0030    1.0111    0.9861
  -85.30    7.16  178.68     0.000164       1.0030    1.0117    0.9855
  -74.00    7.23  176.74     0.000528       1.0030    1.0116    0.9855
  -52.51    7.47  174.91     0.000449       1.0032    1.0115    0.9854
  -43.72    7.56  176.58     0.000041       1.0034    1.0115    0.9853
  -25.97    7.68    0.27     0.000015       1.0035    1.0114    0.9853
   -7.09    7.70    2.64     0.000474       1.0036    1.0113    0.9853
  -51.71    3.95  173.90     0.000190       1.0037    1.0114    0.9850
  -43.94    4.01  176.60     0.000246       1.0038    1.0114    0.9850
  -36.46    4.06   -0.13     0.000069       1.0039    1.0113    0.9849
  -21.23    4.15    6.17     0.000166       1.0040    1.0113    0.9849
  -11.53    4.16    6.97     0.000284       1.0040    1.0113    0.9849
  -59.13    1.19  152.39     0.000010       1.0037    1.0114    0.9851
  -53.58    1.13  156.05     0.001046       1.0038    1.0114    0.9850
  -49.90    1.08  161.93     0.000838       1.0039    1.0113    0.9850
  -37.98    1.22   22.65     0.000197       1.0043    1.0112    0.9847
  -33.09    1.31   28.25     0.000010       1.0043    1.0111    0.9847
  -96.66   29.94 -169.27     0.000654       1.0002    1.0016    0.9982
  -79.29   29.45  178.50     0.000143       1.0002    1.0016    0.9983
  -22.61   33.59  146.15     0.000163       1.0004    1.0014    0.9982
  -12.16   34.33  144.76     0.000899       1.0005    1.0014    0.9982
   -2.37   34.66  146.88     0.000151       1.0006    1.0013    0.9981
  -77.31   31.44 -179.67     0.000321       1.0004    1.0046    0.9951
  -64.58   31.64  176.52     0.000403       1.0004    1.0045    0.9951
  -52.35   31.98  173.51     0.000049       1.0005    1.0044    0.9951
  -40.76   32.37  171.53     0.000217       1.0006    1.0044    0.9950
  -29.78   32.71  170.64     0.000481       1.0007    1.0043    0.9950
  -19.33   32.96  170.79     0.001522       1.0008    1.0043    0.9950
   -9.58   33.06   -7.73     0.000317       1.0008    1.0042    0.9950
  -65.45   26.95  178.43     0.000283       1.0008    1.0072    0.9921
  -53.77   27.15  176.29     0.000259       1.0009    1.0071    0.9921
  -42.49   27.38  174.86     0.000818       1.0010    1.0070    0.9920
  -31.65   27.59   -5.83     0.000833       1.0011    1.0070    0.9920
  -21.17   27.74   -5.85     0.000565       1.0011    1.0069    0.9920
  -11.91   27.78   -4.01     0.000375       1.0012    1.0069    0.9920
  -66.11   21.62  179.37     0.000404       1.0013    1.0093    0.9895
  -54.51   21.77  177.43     0.000840       1.0014    1.0092    0.9895
  -43.27   21.94  176.11     0.001101       1.0015    1.0091    0.9895
  -32.40   22.09   -4.58     0.000734       1.0016    1.0090    0.9894
  -13.16   22.22   -2.31     0.000427       1.0018    1.0089    0.9894
  -88.33   16.08 -177.67     0.000070       1.0018    1.0108    0.9876
  -66.35   16.36  179.52     0.000011       1.0019    1.0107    0.9875
  -55.13   16.52  178.12     0.000551       1.0020    1.0106    0.9875
  -43.73   16.66  176.71     0.000443       1.0021    1.0105    0.9875
  -14.18   16.87   -1.06     0.000399       1.0024    1.0103    0.9874
  -76.85   11.35  179.99     0.000299       1.0025    1.0115    0.9862
  -65.69   11.49  178.47     0.000252       1.0026    1.0114    0.9862
  -54.73   11.65  177.44     0.000139       1.0027    1.0114    0.9861
  -15.42   11.98    0.30     0.000463       1.0031    1.0111    0.9860
  -87.50    7.09 -179.09     0.000458       1.0030    1.0117    0.9855
  -75.83    7.16  178.58     0.000103       1.0030    1.0117    0.9855
  -17.56    7.71    2.47     0.000404       1.0037    1.0114    0.9852
   -8.46    7.71    3.99     0.000613       1.0037    1.0113    0.9851
  -72.60    3.73  175.02     0.000210       1.0035    1.0115    0.9852
  -60.10    3.81  172.08     0.000105       1.0036    1.0115    0.9851
  -35.38    4.00   -1.43     0.000034       1.0040    1.0114    0.9849
  -20.23    4.10    4.95     0.000358       1.0041    1.0113    0.9848
  -12.53    4.14    7.82     0.001310       1.0041    1.0113    0.9848
  -68.72    1.01  161.86     0.000080       1.0037    1.0114    0.9851
  -51.62    1.04  153.94     0.000536       1.0037    1.0114    0.9851
  -42.97    1.03  154.83     0.000109       1.0038    1.0113    0.9850
  -30.47    1.09   14.90     0.000039       1.0044    1.0112    0.9847
  -25.89    1.16   20.81     0.001490       1.0044    1.0111    0.9847
   92.16   30.29   -3.16     0.000145       1.0001    1.0019    0.9980
   41.30   34.50   29.21     0.000161       1.0004    1.0016    0.9980
   31.33   34.73   31.81     0.000850       1.0005    1.0016    0.9980
   22.18   34.79   32.43     0.000146       1.0005    1.0015    0.9980
   87.16   30.82   -0.56     0.000338       1.0003    1.0049    0.9948
   75.70   31.10    2.37     0.000403       1.0004    1.0048    0.9948
   64.37   31.55    5.13     0.000062       1.0005    1.0047    0.9948
   53.35   32.10    7.45     0.000355       1.0007    1.0046    0.9948
   42.73   32.72    9.11     0.000441       1.0008    1.0045    0.9947
   32.64   33.13    9.61     0.000782       1.0009    1.0044    0.9947
   23.08   33.24    8.73     0.000271       1.0010    1.0043    0.9947
   75.23   26.34    1.68     0.000388       1.0008    1.0074    0.9918
   64.32   26.63    3.51     0.000432       1.0009    1.0073    0.9918
   53.63   26.98    4.98     0.000764       1.0011    1.0072    0.9918
   43.22   27.37    5.92     0.000633       1.0012    1.0071    0.9917
   23.38   27.94    5.69     0.000402       1.0014    1.0069    0.9917
   75.01   21.01    1.39     0.000389       1.0014    1.0093    0.9894
   64.24   21.23    2.92     0.000702       1.0015    1.0093    0.9893
   53.67   21.50    4.09     0.000649       1.0016    1.0092    0.9893
   23.45   22.32    4.56     0.000440       1.0020    1.0090    0.9891
   13.88   22.42    3.60     0.000541       1.0020    1.0089    0.9891
   74.91   15.83    1.18     0.000063       1.0021    1.0106    0.9875
   64.17   16.01    2.63     0.000250       1.0022    1.0106    0.9874
   53.64   16.23    3.68     0.000058       1.0023    1.0105    0.9873
   13.85   17.00    3.08     0.000854       1.0027    1.0103    0.9872
   85.90   11.14   -0.90     0.000065       1.0026    1.0112    0.9863
   75.01   11.13    0.84     0.000089       1.0027    1.0112    0.9862
   13.98   12.01    2.50     0.000806       1.0033    1.0110    0.9858
    4.41   12.08    1.56     0.000123       1.0033    1.0111    0.9858
   86.60    7.27   -1.86     0.000250       1.0032    1.0114    0.9856
   14.48    7.69    1.59     0.000444       1.0038    1.0113    0.9851
    4.90    7.73    0.74     0.000677       1.0038    1.0113    0.9851
   88.90    4.11   -4.42     0.000006       1.0036    1.0113    0.9852
   78.02    4.05   -2.58     0.000388       1.0037    1.0113    0.9852
   67.23    4.02   -1.04     0.000412       1.0039    1.0112    0.9851
   16.47    4.11   -0.75     0.000165       1.0042    1.0112    0.9848
    6.73    4.11   -1.38     0.001189       1.0042    1.0112    0.9848
   99.55    1.56  -15.27     0.000200       1.0039    1.0112    0.9851
   60.59    1.32  -14.10     0.000182       1.0044    1.0109    0.9849
   29.94    1.20  -14.49     0.000021       1.0044    1.0110    0.9847
   19.36    1.15  -14.23     0.001447       1.0044    1.0111    0.9847
   49.65   33.52   27.06     0.000159       1.0003    1.0017    0.9980
   39.46   33.76   29.64     0.000795       1.0003    1.0017    0.9980
   30.20   33.90   30.63     0.000143       1.0004    1.0016    0.9980
   86.45   30.99    0.49     0.000408       1.0004    1.0048    0.9948
   74.69   31.27    3.92     0.000067       1.0005    1.0048    0.9948
   63.10   31.71    7.10     0.000416       1.0005    1.0047    0.9948
   51.88   32.27    9.77     0.000419       1.0007    1.0046    0.9947
   41.48   32.65   10.98     0.000260       1.0007    1.0045    0.9947
   31.88   32.79   10.55     0.000273       1.0008    1.0045    0.9948
   85.84   26.25    0.23     0.000466       1.0008    1.0074    0.9919
   74.59   26.44    2.60     0.000546       1.0009    1.0074    0.9918
   63.48   26.72    4.74     0.000651       1.0010    1.0073    0.9918
   52.62   27.07    6.45     0.000354       1.0011    1.0072    0.9918
   32.33   27.62    7.34     0.000392       1.0013    1.0070    0.9917
   22.94   27.72    6.28     0.000555       1.0013    1.0070    0.9918
   85.60   20.94    0.06     0.000360       1.0014    1.0093    0.9894
   74.50   21.09    2.11     0.000493       1.0014    1.0093    0.9893
   63.53   21.31    3.91     0.000456       1.0015    1.0093    0.9893
   22.82   22.22    5.44     0.000629       1.0019    1.0090    0.9892
   13.56   22.27    4.07     0.000219       1.0019    1.0089    0.9892
   74.40   15.91    1.89     0.000192       1.0021    1.0106    0.9875
   22.48   16.91    5.25     0.000068       1.0026    1.0103    0.9872
   13.17   16.97    4.03     0.000626       1.0026    1.0103    0.9872
   85.56   11.23   -0.40     0.000161       1.0027    1.0112    0.9863
   74.35   11.22    1.72     0.000007       1.0028    1.0112    0.9862
   12.85   12.08    3.96     0.000486       1.0033    1.0110    0.9859
   42.19    7.56    5.07     0.000111       1.0037    1.0112    0.9853
   12.92    7.78    3.48     0.000295       1.0038    1.0113    0.9851
   87.15    4.21   -2.46     0.000338       1.0037    1.0113    0.9852
   75.59    4.15    0.10     0.000381       1.0038    1.0113    0.9851
   64.27    4.12    2.21     0.000463       1.0039    1.0112    0.9851
   42.85    4.16    4.14     0.000146       1.0042    1.0111    0.9849
   13.60    4.21    2.42     0.000116       1.0042    1.0112    0.9848
    4.33    4.20    1.30     0.000001       1.0042    1.0112    0.9848
   92.83    1.62   -8.34     0.000189       1.0039    1.0112    0.9850
   19.17    1.26   -3.46     0.000144       1.0045    1.0110    0.9847
   10.10    1.22   -4.72     0.000088       1.0045    1.0111    0.9847
   59.09   32.37   23.58     0.000155       1.0002    1.0018    0.9980
   48.67   32.56   26.19     0.000744       1.0002    1.0018    0.9980
   39.18   32.77   27.52     0.000141       1.0002    1.0017    0.9980
    9.34   33.21    7.11     0.000160       1.0006    1.0013    0.9981
   85.27   31.06    2.28     0.000070       1.0004    1.0048    0.9948
   73.31   31.33    5.98     0.000429       1.0004    1.0048    0.9948
   61.58   31.77    9.37     0.000402       1.0005    1.0047    0.9948
   41.28   32.24   10.98     0.000291       1.0006    1.0046    0.9948
   32.02   32.41   10.06     0.000157       1.0007    1.0045    0.9948
    6.30   32.74    1.63     0.000507       1.0008    1.0043    0.9949
   85.08   26.30    1.36     0.000587       1.0008    1.0074    0.9918
   73.66   26.48    3.95     0.000569       1.0009    1.0074    0.9918
   62.43   26.75    6.25     0.000072       1.0009    1.0073    0.9918
   41.80   27.22    7.95     0.000199       1.0011    1.0072    0.9918
   32.39   27.37    7.20     0.000574       1.0011    1.0071    0.9918
   23.25   27.49    5.82     0.000109       1.0012    1.0070    0.9919
    5.52   27.65    1.50     0.001149       1.0013    1.0069    0.9919
   84.96   20.99    1.00     0.000318       1.0014    1.0093    0.9894
   73.70   21.13    3.25     0.000456       1.0014    1.0093    0.9893
   32.24   21.93    6.44     0.000062       1.0017    1.0091    0.9893
   23.02   22.03    5.23     0.000321       1.0018    1.0090    0.9893
    5.00   22.17    1.70     0.002138       1.0018    1.0089    0.9894
   73.55   15.96    3.07     0.000003       1.0021    1.0106    0.9875
   62.48   16.13    4.94     0.000018       1.0022    1.0105    0.9874
   22.50   16.78    5.34     0.000138       1.0025    1.0104    0.9873
   13.43   16.84    3.84     0.000443       1.0025    1.0103    0.9873
    4.43   16.88    2.13     0.003654       1.0025    1.0103    0.9874
   84.66   11.28    0.82     0.000146       1.0027    1.0112    0.9862
   30.89   11.89    7.03     0.000085       1.0031    1.0111    0.9860
   21.56   11.98    6.01     0.000034       1.0032    1.0111    0.9860
   12.54   12.03    4.52     0.000972       1.0032    1.0110    0.9860
    3.57   12.06    2.90     0.005571       1.0032    1.0110    0.9860
   61.31    7.39    5.77     0.000174       1.0035    1.0112    0.9854
   30.09    7.71    7.49     0.000208       1.0037    1.0112    0.9852
   20.52    7.78    6.73     0.000323       1.0038    1.0112    0.9852
   11.25    7.82    5.58     0.001533       1.0038    1.0113    0.9851
    2.20    7.84    4.15     0.008002       1.0038    1.0113    0.9851
   83.97    4.26    1.10     0.000394       1.0037    1.0113    0.9852
   71.83    4.22    4.26     0.000054       1.0038    1.0113    0.9851
   48.98    4.19    8.42     0.000011       1.0041    1.0111    0.9850
   28.61    4.27    8.64     0.000060       1.0042    1.0111    0.9849
   19.17    4.28    7.71     0.000508       1.0042    1.0111    0.9848
   10.11    4.28    6.36     0.001875       1.0042    1.0112    0.9848
    1.37    4.26    4.70     0.010560       1.0042    1.0112    0.9848
   82.66    1.66    2.18     0.000147       1.0039    1.0112    0.9850
   44.77    1.51   12.35     0.000106       1.0043    1.0110    0.9849
   23.53    1.43   13.37     0.000287       1.0045    1.0109    0.9848
   14.18    1.38   12.33     0.000658       1.0045    1.0110    0.9847
    5.62    1.33   10.51     0.002033       1.0045    1.0110    0.9847
   -2.15    1.28    7.94     0.012711       1.0045    1.0111    0.9846
   69.94   31.16   18.67     0.000152       1.0001    1.0019    0.9980
   59.34   31.24   21.28     0.000701       1.0001    1.0019    0.9980
   49.51   31.49   23.01     0.000140       1.0001    1.0018    0.9981
   18.37   33.05   12.48     0.000162       1.0006    1.0013    0.9981
   11.89   33.61   -2.01     0.000959       1.0007    1.0012    0.9981
   83.94   31.02    4.22     0.000420       1.0004    1.0048    0.9948
   71.89   31.27    7.97     0.000384       1.0004    1.0048    0.9948
   51.41   31.63   10.05     0.000303       1.0004    1.0047    0.9949
   41.98   31.86    9.69     0.000326       1.0005    1.0046    0.9949
   15.93   32.57    3.15     0.000549       1.0008    1.0043    0.9949
    7.71   32.77   -0.66     0.002815       1.0009    1.0043    0.9949
   84.16   26.28    2.68     0.000518       1.0008    1.0074    0.9919
   42.40   26.96    7.08     0.000329       1.0010    1.0072    0.9919
   33.16   27.15    6.10     0.000157       1.0011    1.0071    0.9919
   24.17   27.32    4.53     0.000175       1.0011    1.0070    0.9919
   15.36   27.48    2.43     0.001264       1.0012    1.0069    0.9919
    6.65   27.61   -0.04     0.004569       1.0012    1.0069    0.9919
   84.17   20.98    2.15     0.000401       1.0014    1.0093    0.9894
   42.26   21.59    6.43     0.000104       1.0016    1.0092    0.9894
   32.98   21.74    5.53     0.000231       1.0016    1.0091    0.9894
   23.90   21.89    4.17     0.000898       1.0017    1.0090    0.9894
   14.94   22.01    2.43     0.002068       1.0018    1.0090    0.9894
    6.05   22.10    0.43     0.006236       1.0018    1.0089    0.9894
   41.72   16.40    6.64     0.000100       1.0022    1.0105    0.9874
   32.46   16.52    5.72     0.000539       1.0023    1.0104    0.9874
   23.39   16.64    4.40     0.001585       1.0024    1.0104    0.9874
   14.42   16.73    2.79     0.002735       1.0024    1.0103    0.9874
    5.48   16.80    1.01     0.008053       1.0024    1.0103    0.9874
   50.06   11.56    8.07     0.000066       1.0029    1.0111    0.9862
   40.64   11.67    7.57     0.000018       1.0029    1.0111    0.9861
   31.47   11.77    6.55     0.001002       1.0030    1.0111    0.9861
   22.46   11.85    5.18     0.001955       1.0030    1.0111    0.9861
   13.54   11.92    3.59     0.002990       1.0031    1.0111    0.9860
    4.64   11.97    1.90     0.009874       1.0031    1.0111    0.9860
   70.67    7.39    6.05     0.000307       1.0033    1.0113    0.9855
   59.19    7.39    8.35     0.000114       1.0034    1.0113    0.9855
   48.32    7.51    9.70     0.000314       1.0035    1.0113    0.9854
   38.64    7.60    9.47     0.000013       1.0036    1.0112    0.9854
   29.58    7.66    8.31     0.000771       1.0036    1.0112    0.9853
   20.68    7.71    6.84     0.001812       1.0036    1.0113    0.9853
   11.84    7.74    5.23     0.002644       1.0037    1.0113    0.9852
    2.98    7.76    3.60     0.011943       1.0037    1.0113    0.9852
   80.29    4.27    5.23     0.000150       1.0037    1.0113    0.9852
   44.65    4.22   13.23     0.000373       1.0040    1.0111    0.9851
   34.51    4.26   13.43     0.000114       1.0041    1.0111    0.9850
   25.49    4.28   12.21     0.000634       1.0041    1.0111    0.9850
   16.61    4.28   10.71     0.001322       1.0041    1.0112    0.9849
    7.73    4.27    9.18     0.002264       1.0041    1.0112    0.9849
   -1.20    4.26    7.72     0.013377       1.0041    1.0112    0.9848
   71.77    1.70   13.47     0.000055       1.0039    1.0113    0.9850
   57.46    1.67   18.81     0.000747       1.0040    1.0112    0.9850
   44.04    1.65   23.04     0.000957       1.0041    1.0111    0.9850
   31.60    1.62   25.95     0.000289       1.0042    1.0110    0.9850
   20.29    1.58   27.32     0.000316       1.0043    1.0109    0.9849
   10.26    1.54   27.09     0.000661       1.0044    1.0110    0.9848
    1.07    1.48   25.89     0.000822       1.0044    1.0110    0.9848
   -7.10    1.41   23.69     0.002160       1.0044    1.0111    0.9847
  -14.20    1.34   20.45     0.013719       1.0044    1.0111    0.9847
   82.35   30.11   12.25     0.000148       1.0000    1.0020    0.9980
   71.71   30.03   14.76     0.000670       1.0000    1.0020    0.9981
   61.48   30.24   16.92     0.000141       1.0000    1.0019    0.9981
   27.58   32.74   14.70     0.000164       1.0005    1.0014    0.9981
   20.48   33.65    7.21     0.000938       1.0007    1.0013    0.9981
   13.59   34.64  -10.86     0.000156       1.0008    1.0012    0.9981
   82.84   30.84    5.71     0.000361       1.0003    1.0049    0.9949
   62.33   31.06    7.91     0.000311       1.0003    1.0048    0.9949
   52.63   31.31    8.12     0.000391       1.0004    1.0047    0.9949
   43.31   31.63    7.63     0.000009       1.0005    1.0046    0.9949
   25.69   32.35    4.11     0.000529       1.0007    1.0044    0.9949
   17.26   32.71    1.06     0.002301       1.0008    1.0043    0.9949
    8.93   33.03   -2.68     0.000411       1.0009    1.0042    0.9949
   52.98   26.56    5.96     0.000221       1.0008    1.0073    0.9919
   43.54   26.79    5.51     0.000137       1.0009    1.0072    0.9919
   34.35   27.04    4.49     0.000661       1.0010    1.0071    0.9919
   25.37   27.29    2.91     0.001048       1.0011    1.0070    0.9919
   16.53   27.51    0.85     0.002586       1.0012    1.0069    0.9919
    7.75   27.71   -1.55     0.000679       1.0013    1.0069    0.9919
   52.90   21.25    5.42     0.000331       1.0014    1.0093    0.9894
   43.44   21.44    4.97     0.000631       1.0015    1.0092    0.9894
   34.19   21.63    4.03     0.001335       1.0016    1.0091    0.9894
   25.11   21.82    2.67     0.001300       1.0017    1.0090    0.9894
   16.13   21.99    0.97     0.001880       1.0018    1.0090    0.9894
    7.19   22.13   -0.95     0.000899       1.0018    1.0089    0.9894
   83.24   15.77    3.09     0.000033       1.0020    1.0106    0.9876
   43.05   16.24    5.12     0.000943       1.0021    1.0105    0.9875
   33.83   16.40    4.17     0.001337       1.0022    1.0104    0.9875
   24.76   16.55    2.85     0.001027       1.0023    1.0104    0.9874
   15.75   16.67    1.28     0.000950       1.0024    1.0103    0.9874
    6.76   16.78   -0.41     0.000961       1.0024    1.0103    0.9874
   61.15   11.27    6.56     0.000307       1.0027    1.0112    0.9863
   51.59   11.39    6.46     0.000237       1.0027    1.0112    0.9862
   42.27   11.51    5.85     0.000624       1.0028    1.0111    0.9862
   33.13   11.63    4.81     0.000641       1.0029    1.0111    0.9862
   24.12   11.74    3.45     0.000593       1.0030    1.0111    0.9861
   15.16   11.83    1.91     0.000308       1.0030    1.0111    0.9861
    6.17   11.90    0.33     0.000803       1.0030    1.0111    0.9861
   80.98    7.35    5.08     0.000164       1.0032    1.0114    0.9856
   69.16    7.32    7.88     0.000528       1.0032    1.0114    0.9856
   49.95    7.36    8.14     0.000449       1.0034    1.0113    0.9855
   40.76    7.44    7.38     0.000041       1.0034    1.0113    0.9855
   22.82    7.58    4.75     0.000015       1.0036    1.0113    0.9854
    4.93    7.67    1.73     0.000474       1.0036    1.0113    0.9853
   46.49    4.09   11.58     0.000190       1.0039    1.0111    0.9852
   37.46    4.12   10.64     0.000246       1.0039    1.0111    0.9852
   28.52    4.14    9.34     0.000069       1.0040    1.0111    0.9851
   10.58    4.15    6.52     0.000166       1.0040    1.0112    0.9850
    1.42    4.15    5.31     0.000284       1.0040    1.0112    0.9849
   63.13    1.72   22.44     0.000010       1.0038    1.0113    0.9851
   53.39    1.65   23.19     0.001046       1.0039    1.0112    0.9851
   43.97    1.58   23.40     0.000838       1.0040    1.0111    0.9851
   -6.16    1.33   23.07     0.000197       1.0043    1.0111    0.9848
  -17.58    1.30   24.17     0.000010       1.0043    1.0111    0.9848
   85.63   29.23    6.80     0.000654       0.9999    1.0020    0.9981
   75.04   29.31    9.33     0.000143       1.0000    1.0020    0.9981
   37.09   32.34   14.80     0.000163       1.0004    1.0015    0.9981
   29.03   33.52   12.99     0.000899       1.0006    1.0014    0.9980
   21.32   34.78    6.11     0.000151       1.0008    1.0012    0.9980
   73.93   30.61    4.84     0.000321       1.0002    1.0049    0.9949
   63.91   30.85    5.61     0.000403       1.0003    1.0048    0.9949
   54.16   31.20    5.91     0.000049       1.0004    1.0047    0.9949
   44.72   31.63    5.58     0.000217       1.0005    1.0046    0.9949
   35.60   32.10    4.48     0.000481       1.0007    1.0045    0.9949
   26.74   32.58    2.53     0.001522       1.0008    1.0044    0.9948
   18.07   33.04   -0.24     0.000317       1.0009    1.0043    0.9948
   64.05   26.24    4.07     0.000283       1.0007    1.0074    0.9920
   54.30   26.48    4.20     0.000259       1.0008    1.0073    0.9919
   44.78   26.77    3.85     0.000818       1.0009    1.0072    0.9919
   35.48   27.08    2.97     0.000833       1.0011    1.0071    0.9919
   26.36   27.39    1.57     0.000565       1.0012    1.0070    0.9919
   17.35   27.67   -0.29     0.000375       1.0013    1.0069    0.9918
   64.00   20.97    3.63     0.000404       1.0013    1.0094    0.9895
   54.28   21.16    3.69     0.000840       1.0014    1.0093    0.9894
   44.75   21.39    3.32     0.001101       1.0015    1.0092    0.9894
   35.41   21.63    2.52     0.000734       1.0016    1.0091    0.9894
   17.08   22.06   -0.22     0.000427       1.0018    1.0090    0.9893
   83.60   15.64    2.72     0.000070       1.0019    1.0107    0.9876
   63.78   15.82    3.70     0.000011       1.0019    1.0106    0.9876
   54.10   15.99    3.71     0.000551       1.0020    1.0106    0.9875
   44.62   16.17    3.29     0.000443       1.0021    1.0105    0.9875
   16.95   16.69   -0.10     0.000399       1.0024    1.0104    0.9874
   73.09   11.03    3.84     0.000299       1.0026    1.0112    0.9864
   63.32   11.13    4.18     0.000252       1.0026    1.0112    0.9863
   53.72   11.26    4.12     0.000139       1.0027    1.0112    0.9863
   16.79   11.79    0.15     0.000463       1.0030    1.0111    0.9861
   81.92    7.22    4.18     0.000458       1.0031    1.0115    0.9857
   72.11    7.16    4.81     0.000103       1.0031    1.0114    0.9857
   16.36    7.55    0.70     0.000404       1.0036    1.0113    0.9853
    7.14    7.60   -0.53     0.000613       1.0036    1.0113    0.9853
   70.13    4.01    6.75     0.000210       1.0035    1.0113    0.9853
   60.77    3.96    6.86     0.000105       1.0037    1.0112    0.9853
   33.34    4.00    4.52     0.000034       1.0039    1.0111    0.9851
   14.86    4.03    2.26     0.000358       1.0040    1.0112    0.9850
    5.33    4.04    1.44     0.001310       1.0040    1.0112    0.9849
   71.35    1.53   14.35     0.000080       1.0037    1.0113    0.9852
   63.35    1.46   13.35     0.000536       1.0038    1.0112    0.9852
   55.06    1.39   12.43     0.000109       1.0039    1.0111    0.9852
    5.47    1.15   11.57     0.000039       1.0042    1.0110    0.9849
   -7.11    1.12   13.84     0.001490       1.0042    1.0111    0.9849
  106.11   29.90  -11.20     0.000145       1.0000    1.0020    0.9980
  143.97   31.71  -16.42     0.000161       1.0002    1.0019    0.9979
  151.03   32.62  -15.05     0.000850       1.0003    1.0018    0.9979
  157.94   33.50  -12.71     0.000146       1.0005    1.0017    0.9978
   99.51   30.49   -4.61     0.000338       1.0002    1.0049    0.9949
  110.16   30.52   -6.31     0.000403       1.0002    1.0050    0.9949
  120.34   30.65   -7.33     0.000062       1.0002    1.0049    0.9949
  130.00   30.82   -7.53     0.000355       1.0003    1.0049    0.9948
  139.21   31.16   -7.13     0.000441       1.0004    1.0048    0.9948
  148.12   31.60   -6.18     0.000782       1.0006    1.0047    0.9947
  156.78   32.02  175.42     0.000271       1.0008    1.0046    0.9947
  108.93   25.91   -4.98     0.000388       1.0006    1.0075    0.9920
  119.04   25.99   -5.67     0.000432       1.0007    1.0075    0.9920
  128.78   26.11   -5.76     0.000764       1.0007    1.0074    0.9919
  138.25   26.34   -5.39     0.000633       1.0008    1.0073    0.9919
  156.53   26.91  176.69     0.000402       1.0012    1.0071    0.9917
  108.76   20.69   -4.81     0.000389       1.0012    1.0094    0.9895
  118.82   20.76   -5.36     0.000702       1.0012    1.0093    0.9895
  128.56   20.86   -5.35     0.000649       1.0013    1.0093    0.9895
  156.54   21.47  177.12     0.000440       1.0018    1.0090    0.9893
  165.59   21.65  178.59     0.000541       1.0019    1.0089    0.9892
  109.07   15.72   -5.14     0.000063       1.0018    1.0106    0.9877
  119.10   15.84   -5.61     0.000250       1.0019    1.0106    0.9877
  128.78   15.97   -5.48     0.000058       1.0019    1.0105    0.9877
  165.72   16.52  178.79     0.000854       1.0025    1.0102    0.9874
   99.51   11.15   -4.94     0.000065       1.0025    1.0113    0.9864
  109.78   11.25   -5.88     0.000089       1.0025    1.0113    0.9864
  165.78   11.93  179.07     0.000806       1.0031    1.0109    0.9861
  174.69   11.93 -179.33     0.000123       1.0032    1.0109    0.9861
  100.83    7.30   -6.25     0.000250       1.0030    1.0114    0.9857
  165.57    7.95  179.64     0.000444       1.0037    1.0111    0.9854
  174.29    7.93 -178.59     0.000677       1.0037    1.0111    0.9853
  103.29    4.17   -8.70     0.000006       1.0035    1.0114    0.9853
  112.80    4.26   -8.99     0.000388       1.0035    1.0114    0.9853
  121.86    4.35   -8.48     0.000412       1.0035    1.0113    0.9853
  164.48    4.62 -178.92     0.000165       1.0041    1.0111    0.9850
  172.85    4.59 -176.82     0.001189       1.0041    1.0111    0.9849
  111.29    1.62  -16.71     0.000200       1.0037    1.0113    0.9852
  136.81    1.77   -3.06     0.000182       1.0039    1.0112    0.9851
  158.81    1.79 -173.01     0.000021       1.0043    1.0111    0.9848
  166.06    1.77 -169.80     0.001447       1.0044    1.0111    0.9848
  132.85   30.85  -11.80     0.000159       1.0001    1.0020    0.9980
  141.47   31.98  -12.89     0.000795       1.0003    1.0018    0.9979
  149.56   33.07  -13.23     0.000143       1.0004    1.0017    0.9978
   98.03   30.22   -2.48     0.000408       1.0001    1.0050    0.9949
  108.31   30.28   -3.62     0.000067       1.0001    1.0050    0.9949
  118.16   30.43   -4.15     0.000416       1.0002    1.0050    0.9949
  128.13   30.83   -4.87     0.000419       1.0003    1.0049    0.9948
  137.86   31.32   -5.23     0.000260       1.0005    1.0048    0.9948
  147.21   31.80   -4.89     0.000273       1.0007    1.0047    0.9947
   97.11   25.73   -1.92     0.000466       1.0005    1.0075    0.9920
  107.26   25.76   -2.72     0.000546       1.0005    1.0075    0.9920
  117.12   25.86   -3.07     0.000651       1.0006    1.0075    0.9920
  127.20   26.12   -3.64     0.000354       1.0008    1.0074    0.9919
  146.64   26.76  176.54     0.000392       1.0011    1.0072    0.9918
  156.01   27.05  177.36     0.000555       1.0013    1.0071    0.9917
   96.89   20.55   -1.89     0.000360       1.0011    1.0094    0.9896
  106.99   20.58   -2.57     0.000493       1.0011    1.0094    0.9896
  116.82   20.66   -2.82     0.000456       1.0012    1.0093    0.9896
  155.95   21.58  177.83     0.000629       1.0019    1.0090    0.9893
  165.29   21.76  178.91     0.000219       1.0020    1.0089    0.9892
  107.02   15.63   -2.72     0.000192       1.0018    1.0106    0.9877
  155.99   16.54  178.08     0.000068       1.0025    1.0102    0.9874
  165.35   16.62  179.15     0.000626       1.0026    1.0102    0.9874
   97.26   11.09   -2.47     0.000161       1.0024    1.0113    0.9865
  107.22   11.20   -3.06     0.000007       1.0024    1.0113    0.9865
  165.35   12.04  179.44     0.000486       1.0032    1.0109    0.9861
  136.77    7.84   -3.13     0.000111       1.0033    1.0112    0.9856
  165.16    8.06  179.94     0.000295       1.0037    1.0111    0.9853
   98.87    4.18   -4.30     0.000338       1.0034    1.0114    0.9854
  107.88    4.28   -4.07     0.000381       1.0034    1.0114    0.9854
  116.48    4.38   -3.09     0.000463       1.0035    1.0113    0.9854
  135.85    4.61   -2.21     0.000146       1.0038    1.0112    0.9852
  164.34    4.73 -178.95     0.000116       1.0041    1.0111    0.9849
  173.56    4.70 -177.74     0.000001       1.0042    1.0111    0.9849
  102.58    1.65   -8.14     0.000189       1.0036    1.0113    0.9853
  160.43    1.89 -174.84     0.000144       1.0044    1.0111    0.9848
  169.77    1.85 -173.73     0.000088       1.0044    1.0111    0.9847
  120.72   30.23   -6.13     0.000155       1.0000    1.0020    0.9980
  131.23   31.40   -9.81     0.000744       1.0002    1.0019    0.9979
  140.76   32.58  -12.67     0.000141       1.0004    1.0018    0.9979
  174.39   35.92  164.73     0.000160       1.0009    1.0014    0.9977
   95.73   30.19    0.71     0.000070       1.0001    1.0050    0.9949
  105.77   30.30   -0.09     0.000429       1.0001    1.0050    0.9949
  116.68   30.64   -2.11     0.000402       1.0003    1.0049    0.9949
  137.40   31.58   -4.69     0.000291       1.0006    1.0047    0.9947
  147.11   32.05   -4.91     0.000157       1.0008    1.0046    0.9946
  174.81   33.02  177.98     0.000507       1.0011    1.0044    0.9945
   95.04   25.72    0.78     0.000587       1.0005    1.0075    0.9920
  105.05   25.79    0.17     0.000569       1.0005    1.0075    0.9920
  115.90   26.01   -1.49     0.000072       1.0007    1.0074    0.9919
  136.57   26.62   -3.25     0.000199       1.0011    1.0072    0.9918
  146.43   26.92  176.71     0.000574       1.0012    1.0071    0.9917
  156.05   27.19  177.16     0.000109       1.0014    1.0070    0.9917
  174.90   27.56  179.03     0.001149       1.0015    1.0069    0.9916
   94.69   20.55    0.81     0.000318       1.0011    1.0094    0.9896
  104.75   20.61    0.18     0.000456       1.0011    1.0094    0.9896
  146.18   21.49  177.28     0.000062       1.0018    1.0090    0.9893
  155.89   21.69  177.74     0.000321       1.0020    1.0089    0.9892
  174.96   21.97  179.42     0.002138       1.0021    1.0089    0.9891
  104.42   15.67    0.27     0.000003       1.0018    1.0106    0.9877
  115.30   15.88   -1.23     0.000018       1.0019    1.0105    0.9877
  155.87   16.64  178.03     0.000138       1.0026    1.0102    0.9874
  165.49   16.70  178.77     0.000443       1.0027    1.0101    0.9873
  175.04   16.71  179.62     0.003654       1.0027    1.0101    0.9873
   93.99   11.11    1.05     0.000146       1.0024    1.0113    0.9865
  146.09   11.98  177.67     0.000085       1.0030    1.0109    0.9862
  155.90   12.07  178.21     0.000034       1.0032    1.0109    0.9861
  165.57   12.11  178.95     0.000972       1.0033    1.0108    0.9860
  175.15   12.10  179.75     0.005571       1.0033    1.0108    0.9860
  114.13    7.60   -0.55     0.000174       1.0031    1.0114    0.9857
  145.94    8.05  177.89     0.000208       1.0036    1.0112    0.9854
  155.88    8.11  178.42     0.000323       1.0037    1.0111    0.9854
  165.65    8.13  179.11     0.001533       1.0038    1.0111    0.9853
  175.32    8.10  179.83     0.008002       1.0038    1.0111    0.9853
   92.47    4.22    2.01     0.000394       1.0034    1.0114    0.9854
  101.46    4.33    2.27     0.000054       1.0034    1.0114    0.9854
  123.58    4.58   -0.47     0.000011       1.0037    1.0112    0.9852
  145.29    4.76  178.59     0.000060       1.0040    1.0111    0.9850
  155.59    4.80  178.88     0.000508       1.0041    1.0111    0.9850
  165.68    4.79  179.33     0.001875       1.0042    1.0111    0.9849
  175.62    4.76  179.79     0.010560       1.0042    1.0111    0.9849
   90.10    1.69    4.09     0.000147       1.0036    1.0113    0.9853
  117.29    1.90    5.57     0.000106       1.0039    1.0112    0.9851
  142.25    1.95 -178.36     0.000287       1.0042    1.0111    0.9848
  154.00    1.96 -179.39     0.000658       1.0043    1.0111    0.9848
  165.42    1.94  179.80     0.002033       1.0044    1.0111    0.9847
  176.59    1.90  179.06     0.012711       1.0045    1.0111    0.9847
  108.01   30.00    0.13     0.000152       1.0000    1.0020    0.9980
  120.39   30.95   -6.02     0.000701       1.0002    1.0019    0.9979
  131.47   32.08  -11.20     0.000140       1.0003    1.0018    0.9979
  168.03   35.65  157.34     0.000162       1.0008    1.0015    0.9977
  176.30   35.93  158.54     0.000959       1.0008    1.0015    0.9977
   93.41   30.47    3.95     0.000420       1.0002    1.0050    0.9949
  105.17   30.65    0.76     0.000384       1.0003    1.0049    0.9949
  127.38   31.39   -4.06     0.000303       1.0006    1.0047    0.9947
  137.74   31.84   -5.42     0.000326       1.0007    1.0047    0.9947
  166.58   32.88  174.88     0.000549       1.0011    1.0044    0.9945
  175.79   33.03  176.09     0.002815       1.0011    1.0044    0.9945
   93.32   25.92    3.03     0.000518       1.0006    1.0075    0.9920
  136.73   26.78   -3.64     0.000329       1.0012    1.0072    0.9917
  146.76   27.06  176.05     0.000157       1.0013    1.0071    0.9917
  156.53   27.29  176.27     0.000175       1.0014    1.0070    0.9916
  166.12   27.47  176.91     0.001264       1.0015    1.0070    0.9916
  175.59   27.57  177.82     0.004569       1.0015    1.0069    0.9916
   93.02   20.72    2.83     0.000401       1.0012    1.0094    0.9895
  136.31   21.38   -3.03     0.000104       1.0018    1.0091    0.9893
  146.41   21.59  176.77     0.000231       1.0019    1.0090    0.9892
  156.28   21.77  177.02     0.000898       1.0020    1.0089    0.9892
  165.97   21.90  177.61     0.002068       1.0021    1.0089    0.9892
  175.57   21.98  178.39     0.006236       1.0021    1.0089    0.9891
  136.14   16.43   -2.81     0.000100       1.0024    1.0103    0.9874
  146.31   16.59  177.04     0.000539       1.0025    1.0102    0.9874
  156.25   16.70  177.32     0.001585       1.0026    1.0102    0.9873
  166.01   16.74  177.87     0.002735       1.0027    1.0101    0.9873
  175.69   16.72  178.56     0.008053       1.0027    1.0101    0.9873
  125.40   11.73   -2.07     0.000066       1.0028    1.0111    0.9863
  136.04   11.91   -2.77     0.000018       1.0030    1.0110    0.9862
  146.34   12.04  177.09     0.001002       1.0031    1.0109    0.9861
  156.38   12.12  177.37     0.001955       1.0032    1.0109    0.9861
  166.24   12.14  177.87     0.002990       1.0033    1.0108    0.9860
  175.99   12.11  178.47     0.009874       1.0033    1.0108    0.9860
  101.67    7.53    2.26     0.000307       1.0031    1.0114    0.9857
  113.48    7.68   -0.15     0.000114       1.0032    1.0114    0.9856
  124.88    7.84   -1.82     0.000314       1.0034    1.0113    0.9855
  135.84    7.99   -2.72     0.000013       1.0035    1.0112    0.9854
  146.42    8.09  177.03     0.000771       1.0037    1.0112    0.9854
  156.69    8.15  177.20     0.001812       1.0037    1.0111    0.9853
  166.75    8.15  177.57     0.002644       1.0038    1.0111    0.9853
  176.67    8.11  178.00     0.011943       1.0038    1.0111    0.9853
   86.14    4.30    8.21     0.000150       1.0034    1.0114    0.9854
  123.57    4.62   -0.83     0.000373       1.0038    1.0112    0.9851
  135.25    4.72   -2.29     0.000114       1.0039    1.0112    0.9851
  146.46    4.79  176.99     0.000634       1.0041    1.0111    0.9850
  157.31    4.82  176.72     0.001322       1.0041    1.0111    0.9849
  167.90    4.81  176.63     0.002264       1.0042    1.0111    0.9849
  178.32    4.76  176.59     0.013377       1.0042    1.0111    0.9849
   77.89    1.76   16.00     0.000055       1.0037    1.0113    0.9852
   88.31    1.83   14.74     0.000747       1.0037    1.0113    0.9851
  103.62    1.86    8.91     0.000957       1.0039    1.0113    0.9851
  118.47    1.90    4.00     0.000289       1.0040    1.0112    0.9850
  132.67    1.94    0.16     0.000316       1.0042    1.0111    0.9849
  146.26    1.96  177.21     0.000661       1.0043    1.0111    0.9848
  159.36    1.97  174.82     0.000822       1.0044    1.0111    0.9847
  172.10    1.95  172.67     0.002160       1.0044    1.0111    0.9847
 -175.42    1.92  170.61     0.013719       1.0044    1.0111    0.9847
   95.34   30.21    6.33     0.000148       1.0000    1.0019    0.9980
  109.15   30.71   -1.77     0.000670       1.0002    1.0019    0.9980
  121.68   31.60   -8.95     0.000141       1.0003    1.0018    0.9979
  161.42   35.19  -25.69     0.000164       1.0006    1.0016    0.9977
  169.84   35.53  -25.68     0.000938       1.0007    1.0016    0.9977
  178.03   35.57  -23.37     0.000156       1.0007    1.0016    0.9978
   93.90   30.82    3.38     0.000361       1.0003    1.0049    0.9948
  117.21   31.24   -3.10     0.000311       1.0005    1.0048    0.9947
  128.16   31.61   -5.43     0.000391       1.0006    1.0047    0.9947
  138.60   32.00   -6.97     0.000009       1.0008    1.0046    0.9946
  158.18   32.64   -7.59     0.000529       1.0010    1.0045    0.9946
  167.52   32.82  173.21     0.002301       1.0010    1.0045    0.9945
  176.70   32.90  174.49     0.000411       1.0010    1.0044    0.9946
  126.93   26.64   -3.67     0.000221       1.0011    1.0072    0.9917
  137.35   26.89   -4.69     0.000137       1.0012    1.0072    0.9917
  147.43   27.12  174.92     0.000661       1.0013    1.0071    0.9917
  157.22   27.31  175.11     0.001048       1.0014    1.0070    0.9916
  166.81   27.44  175.76     0.002586       1.0015    1.0070    0.9916
  176.27   27.49  176.70     0.000679       1.0015    1.0070    0.9916
  126.40   21.27   -3.09     0.000331       1.0017    1.0091    0.9893
  136.85   21.46   -3.92     0.000631       1.0018    1.0090    0.9893
  147.00   21.64  175.80     0.001335       1.0019    1.0090    0.9892
  156.89   21.78  176.02     0.001300       1.0020    1.0089    0.9892
  166.59   21.88  176.60     0.001880       1.0020    1.0089    0.9892
  176.18   21.92  177.40     0.000899       1.0020    1.0089    0.9892
   92.67   15.80    2.67     0.000033       1.0020    1.0106    0.9875
  136.69   16.48   -3.70     0.000943       1.0024    1.0103    0.9874
  146.91   16.62  176.08     0.001337       1.0025    1.0103    0.9874
  156.88   16.70  176.31     0.001027       1.0026    1.0102    0.9873
  166.67   16.71  176.84     0.000950       1.0027    1.0102    0.9873
  176.34   16.67  177.53     0.000961       1.0027    1.0101    0.9873
  114.89   11.61   -1.49     0.000307       1.0028    1.0112    0.9862
  125.99   11.78   -2.99     0.000237       1.0029    1.0111    0.9862
  136.71   11.94   -3.80     0.000624       1.0030    1.0110    0.9861
  147.08   12.05  175.98     0.000641       1.0031    1.0109    0.9861
  157.17   12.11  176.19     0.000593       1.0032    1.0109    0.9861
  167.07   12.11  176.66     0.000308       1.0032    1.0109    0.9860
  176.84   12.05  177.24     0.000803       1.0033    1.0109    0.9860
   90.12    7.45    4.41     0.000164       1.0032    1.0114    0.9856
  102.32    7.56    1.31     0.000528       1.0032    1.0114    0.9855
  125.77    7.86   -3.08     0.000449       1.0035    1.0113    0.9854
  136.85    7.99   -4.10     0.000041       1.0036    1.0112    0.9854
  157.87    8.12  175.61     0.000015       1.0037    1.0111    0.9853
  177.99    8.05  176.27     0.000474       1.0038    1.0111    0.9853
  125.23    4.60   -2.88     0.000190       1.0039    1.0112    0.9851
  137.09    4.69   -4.52     0.000246       1.0040    1.0112    0.9850
  148.48    4.76  174.58     0.000069       1.0041    1.0111    0.9850
  170.25    4.76  173.86     0.000166       1.0041    1.0111    0.9849
 -179.18    4.71  173.66     0.000284       1.0042    1.0111    0.9849
   75.75    1.75   17.81     0.000010       1.0038    1.0113    0.9851
   91.73    1.77   10.96     0.001046       1.0038    1.0113    0.9850
  107.62    1.80    4.55     0.000838       1.0039    1.0113    0.9850
  178.60    1.94  165.79     0.000197       1.0043    1.0111    0.9848
 -168.39    1.92  163.19     0.000010       1.0043    1.0111    0.9848
   97.80   30.71    2.59     0.000654       1.0002    1.0019    0.9980
  111.41   31.20   -6.06     0.000143       1.0002    1.0018    0.9979
  154.38   34.52  -26.39     0.000163       1.0005    1.0017    0.9978
  163.01   34.92  -26.97     0.000899       1.0005    1.0017    0.9978
  171.17   35.03  -25.45     0.000151       1.0006    1.0017    0.9978
  106.95   31.15   -1.94     0.000321       1.0005    1.0048    0.9947
  118.36   31.39   -4.96     0.000403       1.0006    1.0048    0.9947
  129.25   31.71   -7.24     0.000049       1.0006    1.0047    0.9947
  139.62   32.03   -8.67     0.000217       1.0007    1.0047    0.9946
  149.50   32.32   -9.19     0.000481       1.0008    1.0046    0.9946
  158.99   32.52   -8.85     0.001522       1.0009    1.0046    0.9946
  168.19   32.63  172.21     0.000317       1.0009    1.0045    0.9946
  117.04   26.51   -3.40     0.000283       1.0010    1.0073    0.9918
  127.78   26.70   -4.99     0.000259       1.0011    1.0072    0.9917
  138.14   26.91   -5.92     0.000818       1.0012    1.0072    0.9917
  148.14   27.09  173.82     0.000833       1.0013    1.0071    0.9917
  157.84   27.23  174.16     0.000565       1.0013    1.0071    0.9917
  167.32   27.31  174.99     0.000375       1.0014    1.0070    0.9917
  116.48   21.16   -2.92     0.000404       1.0016    1.0092    0.9893
  127.21   21.31   -4.28     0.000840       1.0017    1.0091    0.9893
  137.60   21.47   -5.03     0.001101       1.0018    1.0091    0.9892
  147.66   21.61  174.81     0.000734       1.0019    1.0090    0.9892
  167.06   21.78  175.90     0.000427       1.0020    1.0089    0.9892
   93.71   15.87    1.32     0.000070       1.0021    1.0106    0.9874
  116.22   16.15   -2.85     0.000011       1.0022    1.0105    0.9874
  127.03   16.32   -4.15     0.000551       1.0023    1.0104    0.9874
  137.49   16.48   -4.83     0.000443       1.0024    1.0103    0.9874
  167.18   16.62  176.11     0.000399       1.0026    1.0102    0.9873
  104.71   11.46   -0.95     0.000299       1.0028    1.0112    0.9862
  116.08   11.61   -3.00     0.000252       1.0029    1.0112    0.9862
  127.08   11.77   -4.39     0.000139       1.0029    1.0111    0.9861
  167.70   12.01  175.80     0.000463       1.0032    1.0109    0.9861
   92.07    7.43    2.16     0.000458       1.0033    1.0114    0.9855
  104.15    7.54   -0.84     0.000103       1.0033    1.0114    0.9854
  168.93    8.01  174.75     0.000404       1.0037    1.0112    0.9853
  178.75    7.94  175.29     0.000613       1.0037    1.0111    0.9854
  103.07    4.32   -0.23     0.000210       1.0037    1.0114    0.9851
  115.70    4.43   -3.44     0.000105       1.0038    1.0113    0.9851
  150.55    4.68  172.26     0.000034       1.0040    1.0112    0.9850
  171.88    4.67  172.01     0.000358       1.0041    1.0111    0.9850
 -178.06    4.61  172.33     0.001310       1.0040    1.0111    0.9850
   83.52    1.61    9.82     0.000080       1.0039    1.0113    0.9850
   99.22    1.65    3.24     0.000536       1.0039    1.0113    0.9850
  114.60    1.71   -2.66     0.000109       1.0040    1.0113    0.9849
 -177.02    1.88  161.20     0.000039       1.0042    1.0111    0.9848
 -168.66    1.81  163.27     0.001490       1.0042    1.0111    0.9849
 -104.32   29.58 -174.47     0.000145       1.0001    1.0016    0.9982
 -150.34   35.44 -151.42     0.000161       1.0006    1.0015    0.9979
 -159.33   35.71 -151.13     0.000850       1.0007    1.0015    0.9978
 -167.52   35.71 -153.99     0.000146       1.0007    1.0015    0.9978
  -98.86   31.41 -177.48     0.000338       1.0004    1.0046    0.9950
 -110.69   31.81 -174.53     0.000403       1.0005    1.0046    0.9949
 -122.02   32.34 -172.05     0.000062       1.0006    1.0046    0.9948
 -132.76   32.65 -170.40     0.000355       1.0007    1.0045    0.9947
 -142.93   32.79 -169.69     0.000441       1.0008    1.0045    0.9947
 -152.55   32.88 -169.93     0.000782       1.0009    1.0045    0.9946
 -161.68   32.89 -171.13     0.000271       1.0010    1.0045    0.9946
 -109.67   27.06 -175.25     0.000388       1.0009    1.0073    0.9919
 -120.63   27.24 -173.55     0.000432       1.0010    1.0072    0.9918
 -131.17   27.32 -172.46     0.000764       1.0011    1.0072    0.9918
 -141.29   27.40 -172.00     0.000633       1.0012    1.0071    0.9917
 -160.34   27.46 -173.12     0.000402       1.0013    1.0071    0.9917
 -109.69   21.63 -175.10     0.000389       1.0015    1.0093    0.9893
 -120.50   21.68 -173.68     0.000702       1.0015    1.0093    0.9893
 -130.96   21.75 -172.76     0.000649       1.0016    1.0092    0.9892
 -160.11   21.88 -173.53     0.000440       1.0019    1.0090    0.9892
 -169.24   21.85 -174.82     0.000541       1.0019    1.0090    0.9892
 -110.25   16.28 -174.49     0.000063       1.0021    1.0107    0.9874
 -121.07   16.35 -173.08     0.000250       1.0021    1.0106    0.9874
 -131.50   16.42 -172.23     0.000058       1.0022    1.0106    0.9873
 -169.60   16.54 -174.54     0.000854       1.0026    1.0102    0.9873
 -100.16   11.39 -175.31     0.000065       1.0026    1.0114    0.9861
 -111.43   11.43 -173.30     0.000089       1.0027    1.0114    0.9861
 -170.47   11.76 -173.78     0.000806       1.0032    1.0109    0.9861
 -179.19   11.83 -175.52     0.000123       1.0032    1.0109    0.9861
 -102.04    7.20 -173.53     0.000250       1.0031    1.0116    0.9854
 -171.96    7.76 -172.45     0.000444       1.0037    1.0111    0.9854
  179.62    7.84 -174.44     0.000677       1.0037    1.0111    0.9854
 -106.06    3.80 -169.64     0.000006       1.0036    1.0115    0.9851
 -118.04    3.89 -166.76     0.000388       1.0036    1.0114    0.9851
 -129.22    3.99 -164.88     0.000412       1.0038    1.0113    0.9851
 -174.80    4.46 -169.77     0.000165       1.0041    1.0110    0.9850
  177.37    4.52 -172.28     0.001189       1.0041    1.0111    0.9850
 -124.17    1.15 -151.60     0.000200       1.0038    1.0113    0.9851
 -164.34    1.52 -149.30     0.000182       1.0043    1.0109    0.9850
  175.52    1.70 -160.17     0.000021       1.0043    1.0110    0.9849
  169.62    1.73 -164.57     0.001447       1.0043    1.0110    0.9849
 -143.18   34.61 -150.26     0.000159       1.0005    1.0016    0.9980
 -152.50   34.98 -149.39     0.000795       1.0005    1.0016    0.9979
 -160.81   35.10 -150.97     0.000143       1.0006    1.0016    0.9979
  -99.90   31.55 -175.92     0.000408       1.0004    1.0046    0.9950
 -112.04   31.98 -172.46     0.000067       1.0005    1.0046    0.9949
 -123.29   32.24 -170.18     0.000416       1.0006    1.0046    0.9949
 -133.75   32.36 -169.07     0.000419       1.0006    1.0046    0.9948
 -143.60   32.47 -168.89     0.000260       1.0007    1.0046    0.9947
 -152.86   32.54 -169.71     0.000273       1.0008    1.0045    0.9947
  -99.20   26.89 -176.17     0.000466       1.0008    1.0073    0.9920
 -110.53   26.99 -174.05     0.000546       1.0009    1.0073    0.9919
 -121.29   27.03 -172.68     0.000651       1.0009    1.0073    0.9919
 -131.63   27.10 -171.88     0.000354       1.0010    1.0072    0.9918
 -150.94   27.22 -172.39     0.000392       1.0012    1.0071    0.9918
 -160.00   27.23 -173.69     0.000555       1.0012    1.0071    0.9918
  -99.18   21.49 -176.09     0.000360       1.0013    1.0094    0.9894
 -110.17   21.48 -174.46     0.000493       1.0013    1.0093    0.9894
 -120.85   21.52 -173.22     0.000456       1.0014    1.0093    0.9894
 -159.58   21.70 -174.26     0.000629       1.0018    1.0090    0.9893
 -168.42   21.69 -175.91     0.000219       1.0018    1.0090    0.9893
 -110.47   16.18 -174.17     0.000192       1.0019    1.0107    0.9875
 -159.75   16.44 -174.16     0.000068       1.0024    1.0103    0.9874
 -168.55   16.43 -175.80     0.000626       1.0024    1.0103    0.9874
 -100.14   11.33 -175.24     0.000161       1.0025    1.0114    0.9862
 -111.35   11.37 -173.31     0.000007       1.0025    1.0114    0.9862
 -169.06   11.68 -175.33     0.000486       1.0031    1.0109    0.9862
 -143.91    7.51 -169.68     0.000111       1.0035    1.0112    0.9855
 -170.01    7.73 -174.44     0.000295       1.0036    1.0111    0.9855
 -104.21    3.82 -171.38     0.000338       1.0035    1.0115    0.9852
 -116.31    3.90 -168.39     0.000381       1.0035    1.0114    0.9852
 -127.52    4.00 -166.49     0.000463       1.0037    1.0113    0.9852
 -147.28    4.19 -166.28     0.000146       1.0039    1.0111    0.9852
 -171.88    4.46 -172.62     0.000116       1.0040    1.0110    0.9851
 -179.28    4.54 -175.57     0.000001       1.0040    1.0111    0.9851
 -115.75    1.16 -159.86     0.000189       1.0037    1.0113    0.9852
 -178.36    1.72 -166.12     0.000144       1.0043    1.0110    0.9850
  176.34    1.77 -171.12     0.000088       1.0042    1.0110    0.9849
 -135.05   33.48 -151.20     0.000155       1.0003    1.0016    0.9980
 -144.86   33.95 -149.85     0.000744       1.0004    1.0017    0.9980
 -153.43   34.21 -150.59     0.000141       1.0004    1.0016    0.9979
 -179.01   33.97  178.30     0.000160       1.0006    1.0015    0.9978
 -101.20   31.61 -173.99     0.000070       1.0004    1.0046    0.9950
 -112.95   31.78 -171.22     0.000429       1.0004    1.0047    0.9950
 -123.70   31.87 -169.79     0.000402       1.0005    1.0047    0.9949
 -143.33   32.12 -169.56     0.000291       1.0006    1.0046    0.9948
 -152.22   32.21 -170.93     0.000157       1.0007    1.0046    0.9948
 -176.29   32.27  179.82     0.000507       1.0008    1.0045    0.9947
  -99.69   26.78 -175.48     0.000587       1.0007    1.0073    0.9920
 -110.60   26.75 -173.96     0.000569       1.0007    1.0073    0.9920
 -121.15   26.80 -172.89     0.000072       1.0008    1.0073    0.9920
 -140.88   26.95 -172.69     0.000199       1.0010    1.0072    0.9919
 -150.05   27.02 -173.67     0.000574       1.0011    1.0072    0.9918
 -158.85   27.06 -175.33     0.000109       1.0011    1.0071    0.9918
 -175.60   27.08  179.83     0.001149       1.0012    1.0071    0.9918
  -99.01   21.33 -176.23     0.000318       1.0012    1.0094    0.9895
 -109.85   21.32 -174.81     0.000456       1.0012    1.0094    0.9895
 -149.30   21.55 -174.55     0.000062       1.0016    1.0091    0.9894
 -158.19   21.59 -176.02     0.000321       1.0017    1.0091    0.9894
 -175.26   21.61  179.78     0.002138       1.0018    1.0090    0.9893
 -109.74   16.06 -174.94     0.000003       1.0018    1.0107    0.9876
 -120.26   16.11 -173.92     0.000018       1.0019    1.0107    0.9876
 -158.00   16.35 -176.20     0.000138       1.0023    1.0103    0.9875
 -166.59   16.38 -178.10     0.000443       1.0024    1.0103    0.9875
 -174.99   16.38  179.70     0.003654       1.0024    1.0102    0.9875
  -98.98   11.26 -176.38     0.000146       1.0024    1.0114    0.9863
 -149.37   11.58 -174.48     0.000085       1.0029    1.0110    0.9863
 -158.08   11.62 -176.09     0.000034       1.0030    1.0109    0.9863
 -166.50   11.65 -178.11     0.000972       1.0030    1.0109    0.9863
 -174.72   11.77  179.60     0.005571       1.0030    1.0109    0.9863
 -121.46    7.27 -172.57     0.000174       1.0031    1.0114    0.9856
 -149.95    7.52 -173.83     0.000208       1.0035    1.0111    0.9856
 -158.40    7.58 -175.70     0.000323       1.0036    1.0110    0.9856
 -166.50    7.72 -178.01     0.001533       1.0036    1.0111    0.9855
 -174.39    7.84  179.45     0.008002       1.0036    1.0111    0.9855
  -99.72    3.81 -175.72     0.000394       1.0034    1.0115    0.9853
 -111.74    3.87 -172.81     0.000054       1.0035    1.0114    0.9853
 -133.08    4.06 -170.41     0.000011       1.0037    1.0112    0.9853
 -151.03    4.22 -172.60     0.000060       1.0039    1.0110    0.9853
 -159.03    4.35 -174.96     0.000508       1.0040    1.0110    0.9852
 -166.61    4.46 -177.76     0.001875       1.0040    1.0110    0.9852
 -173.90    4.57  179.18     0.010560       1.0040    1.0111    0.9851
 -100.33    1.13 -175.03     0.000147       1.0037    1.0113    0.9852
 -138.09    1.39 -165.17     0.000106       1.0040    1.0110    0.9852
 -154.66    1.56 -168.79     0.000287       1.0042    1.0109    0.9851
 -161.37    1.65 -172.45     0.000658       1.0042    1.0109    0.9850
 -167.38    1.73 -176.79     0.002033       1.0042    1.0110    0.9850
 -172.88    1.80  178.41     0.012711       1.0042    1.0110    0.9850
 -125.46   32.03 -154.04     0.000152       1.0002    1.0017    0.9981
 -135.98   32.59 -152.10     0.000701       1.0002    1.0017    0.9981
 -145.03   33.04 -152.04     0.000140       1.0003    1.0017    0.9980
 -171.08   33.93 -177.19     0.000162       1.0006    1.0015    0.9979
 -176.19   34.27  170.04     0.000959       1.0006    1.0015    0.9978
 -101.71   31.37 -173.34     0.000420       1.0003    1.0047    0.9951
 -112.71   31.39 -171.72     0.000384       1.0003    1.0047    0.9950
 -133.01   31.67 -170.58     0.000303       1.0004    1.0047    0.9949
 -142.21   31.85 -171.37     0.000326       1.0005    1.0046    0.9948
 -166.82   32.32 -179.29     0.000549       1.0008    1.0045    0.9947
 -174.41   32.45  176.75     0.002815       1.0009    1.0045    0.9947
  -99.23   26.55 -176.06     0.000518       1.0006    1.0073    0.9921
 -139.61   26.82 -174.41     0.000329       1.0009    1.0072    0.9919
 -148.61   26.94 -175.64     0.000157       1.0010    1.0072    0.9919
 -157.25   27.05 -177.52     0.000175       1.0011    1.0071    0.9918
 -165.63   27.14 -179.91     0.001264       1.0012    1.0071    0.9918
 -173.83   27.23  177.33     0.004569       1.0013    1.0070    0.9917
  -98.20   21.19 -177.16     0.000401       1.0011    1.0094    0.9896
 -138.55   21.41 -175.53     0.000104       1.0015    1.0092    0.9894
 -147.64   21.51 -176.62     0.000231       1.0016    1.0091    0.9894
 -156.41   21.60 -178.25     0.000898       1.0017    1.0091    0.9894
 -164.95   21.67  179.69     0.002068       1.0018    1.0090    0.9893
 -173.33   21.73  177.33     0.006236       1.0018    1.0090    0.9893
 -138.01   16.21 -176.00     0.000100       1.0021    1.0105    0.9875
 -147.08   16.29 -177.10     0.000539       1.0022    1.0104    0.9875
 -155.83   16.37 -178.70     0.001585       1.0023    1.0103    0.9875
 -164.34   16.43  179.29     0.002735       1.0024    1.0103    0.9875
 -172.70   16.49  177.03     0.008053       1.0025    1.0102    0.9875
 -128.26   11.39 -175.68     0.000066       1.0026    1.0112    0.9863
 -137.67   11.48 -176.21     0.000018       1.0028    1.0111    0.9863
 -146.63   11.56 -177.41     0.001002       1.0029    1.0110    0.9863
 -155.25   11.64 -179.13     0.001955       1.0030    1.0109    0.9862
 -163.60   11.70  178.78     0.002990       1.0031    1.0109    0.9862
 -171.83   11.86  176.48     0.009874       1.0031    1.0109    0.9862
 -107.35    7.16 -177.28     0.000307       1.0030    1.0115    0.9856
 -117.93    7.23 -176.10     0.000114       1.0031    1.0115    0.9856
 -127.88    7.33 -175.81     0.000314       1.0032    1.0113    0.9856
 -137.22    7.42 -176.42     0.000013       1.0034    1.0112    0.9856
 -146.03    7.51 -177.79     0.000771       1.0035    1.0111    0.9856
 -154.41    7.59 -179.73     0.001812       1.0036    1.0110    0.9855
 -162.55    7.76  178.00     0.002644       1.0036    1.0111    0.9855
 -170.51    7.91  175.53     0.011943       1.0036    1.0111    0.9855
  -93.98    3.80  178.70     0.000150       1.0034    1.0115    0.9853
 -126.82    4.02 -176.53     0.000373       1.0037    1.0112    0.9853
 -136.13    4.12 -177.17     0.000114       1.0038    1.0111    0.9853
 -144.74    4.21 -178.75     0.000634       1.0040    1.0110    0.9852
 -152.89    4.36  179.05     0.001322       1.0040    1.0110    0.9852
 -160.67    4.50  176.46     0.002264       1.0040    1.0110    0.9851
 -168.20    4.63  173.65     0.013377       1.0040    1.0111    0.9851
  -82.37    1.16  167.30     0.000055       1.0037    1.0113    0.9852
  -97.12    1.20  173.02     0.000747       1.0037    1.0112    0.9852
 -110.22    1.27  176.86     0.000957       1.0039    1.0111    0.9852
 -121.56    1.35  178.62     0.000289       1.0040    1.0110    0.9852
 -131.34    1.44  178.47     0.000316       1.0041    1.0109    0.9852
 -140.01    1.54  176.90     0.000661       1.0042    1.0109    0.9851
 -147.78    1.65  174.31     0.000822       1.0042    1.0109    0.9850
 -154.85    1.76  171.04     0.002160       1.0042    1.0110    0.9850
 -161.45    1.86  167.33     0.013719       1.0042    1.0110    0.9849
 -113.76   30.36 -159.09     0.000148       1.0001    1.0017    0.9982
 -125.25   30.97 -156.33     0.000670       1.0001    1.0017    0.9982
 -135.16   31.60 -155.27     0.000141       1.0001    1.0017    0.9981
 -163.06   33.78 -172.87     0.000164       1.0006    1.0015    0.9979
 -168.53   34.46  174.91     0.000938       1.0007    1.0015    0.9978
 -173.90   35.24  161.60     0.000156       1.0007    1.0015    0.9978
 -100.88   31.02 -174.60     0.000361       1.0002    1.0047    0.9951
 -121.94   31.26 -172.59     0.000311       1.0003    1.0047    0.9950
 -131.60   31.50 -172.68     0.000391       1.0004    1.0047    0.9949
 -140.68   31.77 -173.67     0.000009       1.0006    1.0046    0.9949
 -157.39   32.35 -178.35     0.000529       1.0008    1.0045    0.9947
 -165.27   32.64  178.18     0.002301       1.0009    1.0045    0.9946
 -173.25   32.88  174.71     0.000411       1.0010    1.0045    0.9946
 -128.82   26.66 -175.68     0.000221       1.0008    1.0073    0.9920
 -138.17   26.84 -176.32     0.000137       1.0010    1.0072    0.9919
 -147.14   27.03 -177.62     0.000661       1.0011    1.0071    0.9918
 -155.80   27.21 -179.51     0.001048       1.0012    1.0071    0.9918
 -164.23   27.39  178.12     0.002586       1.0013    1.0070    0.9917
 -173.14   27.50  176.35     0.000679       1.0014    1.0070    0.9917
 -127.56   21.33 -176.89     0.000331       1.0014    1.0093    0.9894
 -136.99   21.46 -177.43     0.000631       1.0015    1.0092    0.9894
 -146.06   21.61 -178.56     0.001335       1.0017    1.0091    0.9893
 -154.86   21.75  179.82     0.001300       1.0018    1.0090    0.9893
 -163.46   21.87  177.79     0.001880       1.0019    1.0090    0.9892
 -172.81   21.93  176.71     0.000899       1.0020    1.0089    0.9892
  -96.13   15.96 -179.41     0.000033       1.0017    1.0108    0.9876
 -136.15   16.26 -178.11     0.000943       1.0022    1.0105    0.9875
 -145.22   16.38 -179.22     0.001337       1.0023    1.0104    0.9874
 -154.00   16.50  179.19     0.001027       1.0025    1.0103    0.9874
 -162.59   16.60  177.27     0.000950       1.0026    1.0102    0.9873
 -172.19   16.64  176.54     0.000961       1.0026    1.0102    0.9873
 -116.04   11.31 -178.32     0.000307       1.0026    1.0113    0.9863
 -125.87   11.41 -178.20     0.000237       1.0027    1.0112    0.9862
 -135.25   11.53 -178.77     0.000624       1.0029    1.0111    0.9862
 -144.23   11.64 -179.96     0.000641       1.0030    1.0110    0.9862
 -152.91   11.74  178.37     0.000593       1.0031    1.0109    0.9861
 -161.45   11.83  176.48     0.000308       1.0032    1.0109    0.9861
 -171.17   11.97  175.92     0.000803       1.0032    1.0109    0.9861
  -93.26    7.14  177.89     0.000164       1.0030    1.0116    0.9855
 -104.16    7.17  179.53     0.000528       1.0031    1.0116    0.9855
 -124.47    7.34 -179.24     0.000449       1.0033    1.0114    0.9855
 -133.80    7.45 -179.85     0.000041       1.0035    1.0112    0.9855
 -151.16    7.66  177.00     0.000015       1.0037    1.0111    0.9854
 -169.39    7.98  174.58     0.000474       1.0038    1.0111    0.9853
 -121.21    4.03  177.99     0.000190       1.0038    1.0112    0.9852
 -130.59    4.13  177.44     0.000246       1.0039    1.0111    0.9851
 -139.37    4.23  176.04     0.000069       1.0041    1.0110    0.9851
 -156.05    4.55  172.01     0.000166       1.0041    1.0111    0.9850
 -165.73    4.66  171.42     0.000284       1.0041    1.0111    0.9850
  -68.50    1.23  153.69     0.000010       1.0038    1.0113    0.9851
  -82.30    1.25  158.47     0.001046       1.0038    1.0112    0.9851
  -95.26    1.31  162.19     0.000838       1.0039    1.0111    0.9851
 -144.95    1.80  161.46     0.000197       1.0043    1.0110    0.9848
 -153.25    1.90  159.46     0.000010       1.0043    1.0110    0.9848
 -111.99   29.26 -163.03     0.000654       1.0000    1.0018    0.9983
 -123.21   30.00 -160.62     0.000143       1.0000    1.0018    0.9982
 -154.88   33.51 -169.32     0.000163       1.0006    1.0015    0.9979
 -161.01   34.51 -178.55     0.000899       1.0007    1.0014    0.9979
 -166.98   35.56  167.77     0.000151       1.0008    1.0014    0.9978
 -110.25   30.97 -175.30     0.000321       1.0002    1.0047    0.9951
 -120.49   31.23 -174.64     0.000403       1.0003    1.0047    0.9950
 -130.18   31.57 -174.71     0.000049       1.0005    1.0046    0.9949
 -139.34   31.95 -175.61     0.000217       1.0006    1.0046    0.9948
 -148.04   32.36 -177.37     0.000481       1.0008    1.0045    0.9947
 -156.40   32.77 -179.94     0.001522       1.0009    1.0045    0.9946
 -164.94   33.08  177.56     0.000317       1.0011    1.0044    0.9946
 -117.87   26.58 -177.21     0.000283       1.0008    1.0073    0.9920
 -127.68   26.79 -177.16     0.000259       1.0009    1.0073    0.9919
 -137.11   27.02 -177.72     0.000818       1.0011    1.0072    0.9918
 -146.19   27.28 -178.89     0.000833       1.0012    1.0071    0.9917
 -155.00   27.52  179.38     0.000565       1.0014    1.0070    0.9916
 -164.43   27.65  178.44     0.000375       1.0015    1.0070    0.9916
 -116.63   21.30 -178.30     0.000404       1.0013    1.0093    0.9894
 -126.47   21.45 -178.22     0.000840       1.0015    1.0093    0.9894
 -135.96   21.63 -178.68     0.001101       1.0016    1.0092    0.9893
 -145.15   21.82 -179.68     0.000734       1.0018    1.0091    0.9892
 -163.99   22.04  178.60     0.000427       1.0021    1.0089    0.9891
  -94.98   16.01  179.28     0.000070       1.0018    1.0108    0.9876
 -115.69   16.13 -179.04     0.000011       1.0020    1.0107    0.9875
 -125.54   16.26 -178.92     0.000551       1.0022    1.0106    0.9874
 -135.03   16.40 -179.38     0.000443       1.0023    1.0105    0.9873
 -163.44   16.71  178.45     0.000399       1.0027    1.0102    0.9872
 -104.31   11.30  179.37     0.000299       1.0026    1.0114    0.9862
 -114.58   11.39 -179.86     0.000252       1.0027    1.0113    0.9861
 -124.44   11.50 -179.70     0.000139       1.0029    1.0112    0.9861
 -162.62   11.89  178.01     0.000463       1.0034    1.0108    0.9859
  -91.51    7.17  176.13     0.000458       1.0031    1.0116    0.9854
 -102.28    7.21  177.65     0.000103       1.0032    1.0116    0.9854
 -161.27    7.85  177.07     0.000404       1.0039    1.0111    0.9852
 -171.13    7.97  176.67     0.000613       1.0039    1.0111    0.9852
  -97.47    3.86  173.28     0.000210       1.0037    1.0114    0.9851
 -108.16    3.94  174.67     0.000105       1.0038    1.0113    0.9850
 -137.87    4.23  174.71     0.000034       1.0042    1.0110    0.9850
 -158.44    4.49  174.71     0.000358       1.0043    1.0111    0.9849
 -168.71    4.59  174.72     0.001310       1.0043    1.0111    0.9848
  -70.31    1.13  155.70     0.000080       1.0039    1.0113    0.9850
  -79.29    1.21  155.65     0.000536       1.0040    1.0113    0.9850
  -89.37    1.29  156.50     0.000109       1.0041    1.0112    0.9849
 -147.70    1.69  164.47     0.000039       1.0045    1.0110    0.9847
 -160.03    1.75  166.52     0.001490       1.0045    1.0110    0.9847
