MORPHOLOGY AT STRAIN =    1.0000  FOR PHASE  1
   0.605   2.692   0.605  <-- AXES OF PHASE ELLIPSOID
  180.00   90.00  180.00  <-- EULER ANGLES OF PHASE ELLIPSOID (deg)
   0.766   2.850   0.488  <-- AVERAGE OF GRAIN AXES FOR PHASE
   0.177   0.267   0.230  <-- STANDARD DEV OF AVG GRAIN AXES FOR PHASE
B       500
  142.36   89.05 -169.39     0.002000       0.8057    1.8023    0.6851
  146.84   88.42  169.08     0.002000       0.8973    2.6627    0.4115
   77.42   89.93   -9.39     0.002000       0.8864    2.9284    0.3774
  119.20   88.79    8.49     0.002000       0.9011    2.9106    0.3732
   75.37   90.14   -0.12     0.002000       0.5544    3.8476    0.4557
  173.59   90.76  179.36     0.002000       0.5192    3.6907    0.5084
   43.62   88.56   -9.87     0.002000       0.9023    2.7841    0.3906
  128.27   89.82   -1.32     0.002000       0.6213    3.8385    0.4073
  125.68   94.17   -3.67     0.002000       0.8141    1.6191    0.7558
 -170.36   94.47 -169.64     0.002000       0.8214    1.9277    0.6274
   60.25   89.40   -0.94     0.002000       0.5830    3.8358    0.4347
  147.81   90.08 -179.07     0.002000       0.5243    3.6969    0.5026
 -150.40   96.07  171.62     0.002000       0.8331    1.8393    0.6487
  165.13   90.55 -170.40     0.002000       0.8931    2.9069    0.3774
 -167.47   90.68 -169.51     0.002000       0.8943    2.7867    0.3939
  169.06   90.32  178.89     0.002000       0.5345    3.8202    0.4765
 -150.45   90.25  178.59     0.002000       0.5490    3.7677    0.4705
 -143.47   89.02  173.92     0.002000       0.8547    3.2832    0.3473
 -143.70   87.65  168.10     0.002000       0.8338    2.1910    0.5421
 -160.36   88.97  177.22     0.002000       0.7222    3.6963    0.3640
  178.50   88.22  167.89     0.002000       0.8536    2.3329    0.4964
   89.80   91.02   -6.99     0.002000       0.8724    3.1641    0.3536
 -176.24   90.15 -179.07     0.002000       0.5178    3.8219    0.4916
   89.89   90.12  -10.05     0.002000       0.8904    2.8509    0.3864
  153.02   88.97  178.15     0.002000       0.6884    3.7827    0.3729
  142.34   91.58 -169.21     0.002000       0.8961    2.6445    0.4150
  136.37   89.91 -179.11     0.002000       0.5211    3.6923    0.5064
 -137.22   89.16 -173.56     0.002000       0.8646    3.2240    0.3498
   98.23   89.98   -1.16     0.002000       0.5313    3.7281    0.4916
   84.07   97.52    3.28     0.002000       0.8477    1.7473    0.6716
  150.31   89.24  178.10     0.002000       0.6403    3.7951    0.4000
   92.64   95.21    8.39     0.002000       0.8175    1.7871    0.6809
 -135.83   86.27 -168.82     0.002000       0.8269    2.0691    0.5796
  137.54   89.81 -174.89     0.002000       0.7914    3.4324    0.3587
   57.67   93.47   -9.92     0.002000       0.8083    1.8226    0.6751
   71.74   91.91  -11.84     0.002000       0.8353    2.2241    0.5329
  110.86   89.18  -12.19     0.002000       0.8397    2.2702    0.5191
 -172.89   90.87 -175.98     0.002000       0.7890    3.5382    0.3482
   92.36   89.16   -7.09     0.002000       0.8634    3.1599    0.3579
  108.75   89.90    0.69     0.002000       0.5568    3.8378    0.4550
  165.74   82.39 -177.87     0.002000       0.8798    1.8731    0.6026
 -162.76   90.82 -179.25     0.002000       0.5188    3.7704    0.4977
  119.07   90.27    5.01     0.002000       0.7867    3.4375    0.3603
 -138.39   93.21  173.27     0.002000       0.8111    1.6548    0.7421
 -149.19   91.24  169.46     0.002000       0.8995    2.7580    0.3957
 -151.46   90.25 -177.75     0.002000       0.8094    3.6262    0.3306
 -161.75   94.00 -174.62     0.002000       0.9076    2.2586    0.4816
  122.69   83.97    6.70     0.002000       0.8719    2.0435    0.5563
   71.67   84.92   -4.63     0.002000       0.9006    2.1353    0.5144
 -170.87   91.62  170.77     0.002000       0.9065    2.6827    0.4038
 -178.52   90.86  176.13     0.002000       0.7560    3.5689    0.3606
   95.36   88.98    1.51     0.002000       0.6349    3.7857    0.4044
 -144.41   82.83 -179.87     0.002000       0.8402    1.6747    0.7076
   82.38   89.56    2.43     0.002000       0.6331    3.7479    0.4100
 -135.20   90.98  177.85     0.002000       0.8020    1.5815    0.7858
 -138.65   88.96  170.93     0.002000       0.8963    2.9465    0.3707
  119.32   89.41   11.34     0.002000       0.8870    2.6532    0.4180
   83.98   85.18    7.90     0.002000       0.8728    2.1620    0.5244
  170.08   90.43 -179.48     0.002000       0.5226    3.6736    0.5076
 -135.23   89.99 -178.58     0.002000       0.5776    3.7930    0.4440
   50.21   90.23    1.14     0.002000       0.5281    3.7240    0.4953
  126.68   89.51   11.05     0.002000       0.8904    2.7142    0.4066
   78.46   97.54    2.74     0.002000       0.8704    1.8574    0.6144
   47.61   89.33   -0.97     0.002000       0.5291    3.7616    0.4891
  127.68   96.82   -0.09     0.002000       0.8960    1.9645    0.5633
  151.67   86.19 -173.77     0.002000       0.8151    1.6529    0.7393
  107.43   89.20  -10.60     0.002000       0.8941    2.7640    0.3973
   89.18   87.62    3.17     0.002000       0.8041    1.5949    0.7771
  163.85   89.19  174.16     0.002000       0.8483    3.3205    0.3457
 -161.20   88.12 -168.16     0.002000       0.8106    1.9759    0.6200
  170.92   90.78  173.24     0.002000       0.8600    3.2186    0.3525
  123.16   90.05    0.30     0.002000       0.5544    3.8608    0.4542
 -164.51   90.29 -179.47     0.002000       0.5642    3.8612    0.4462
 -144.26   89.23 -176.00     0.002000       0.7885    3.5332    0.3489
  132.23   89.70    0.21     0.002000       0.5719    3.8653    0.4397
 -176.46   89.49  178.77     0.002000       0.5367    3.7548    0.4831
   92.84   88.76   -9.24     0.002000       0.8989    2.9007    0.3757
   70.52   88.92  -11.57     0.002000       0.8046    1.9514    0.6327
 -161.78   90.97  178.41     0.002000       0.6583    3.7994    0.3884
   94.77   89.97  -11.76     0.002000       0.8753    2.5414    0.4430
 -136.96   91.07  171.56     0.002000       0.8930    3.0100    0.3639
  154.39   89.88  178.40     0.002000       0.6016    3.8261    0.4223
   51.91   89.00   -4.64     0.002000       0.7974    3.4416    0.3548
  175.90   90.46  174.62     0.002000       0.8069    3.4040    0.3547
  170.07   90.34  179.44     0.002000       0.5211    3.6644    0.5104
   97.96   90.80    2.19     0.002000       0.6585    3.7411    0.3947
 -161.69   87.78  171.63     0.002000       0.9048    2.5403    0.4280
   53.93   89.91   -1.41     0.002000       0.5784    3.7910    0.4436
  157.26   91.38 -169.30     0.002000       0.8074    1.8095    0.6809
  176.22   94.38  169.30     0.002000       0.8422    2.1004    0.5603
   72.47   90.55   -0.15     0.002000       0.6764    3.8455    0.3731
  176.25   89.02 -177.29     0.002000       0.7136    3.6834    0.3699
  146.48   90.00 -179.61     0.002000       0.5310    3.8579    0.4746
  137.80   94.71   -7.54     0.002000       0.8169    1.7171    0.7097
 -153.63   90.70 -179.15     0.002000       0.5256    3.7268    0.4972
   97.26   89.66   11.04     0.002000       0.8895    2.7050    0.4085
 -158.84   85.69  169.27     0.002000       0.8219    1.9653    0.6148
 -140.29   91.00  171.03     0.002000       0.8952    2.9585    0.3696
  123.47   93.15   11.03     0.002000       0.8116    1.9051    0.6427
 -156.15   89.43  179.67     0.002000       0.5893    3.8539    0.4278
   89.02   84.06   -8.44     0.002000       0.8299    1.8652    0.6421
  154.64   91.05 -179.69     0.002000       0.5150    3.7281    0.5073
   84.48   94.47   10.29     0.002000       0.8191    1.9442    0.6237
   67.38   94.66   10.11     0.002000       0.8367    2.0696    0.5726
  154.09   90.04  179.17     0.002000       0.5218    3.6738    0.5083
  148.82   90.99 -172.75     0.002000       0.9091    2.8777    0.3740
  144.07   89.46  179.33     0.002000       0.6312    3.8628    0.3982
 -142.69   87.83  176.21     0.002000       0.8063    1.5987    0.7731
  143.94   92.10 -169.55     0.002000       0.8082    1.8027    0.6828
 -167.10   90.95 -174.43     0.002000       0.8392    3.3236    0.3494
  102.31   91.26   10.83     0.002000       0.8947    2.6842    0.4093
 -159.89   91.07 -168.60     0.002000       0.8853    2.6057    0.4267
  107.94   85.01   -3.47     0.002000       0.8192    1.6265    0.7476
 -175.81   90.48 -167.60     0.002000       0.8263    2.1736    0.5516
   68.94   89.61   -2.80     0.002000       0.6523    3.7179    0.4012
   66.85   83.24   -1.10     0.002000       0.8324    1.6589    0.7212
 -139.16   90.27  167.68     0.002000       0.8142    2.0768    0.5867
 -155.21   92.69  168.13     0.002000       0.8174    2.0264    0.5992
   80.17   90.91   -7.79     0.002000       0.8793    3.0742    0.3616
  109.93   90.72   -4.24     0.002000       0.7944    3.4932    0.3504
  128.84   89.78    0.08     0.002000       0.5466    3.8590    0.4609
  130.01   90.38   -0.79     0.002000       0.5197    3.6843    0.5088
  141.79   90.70  177.48     0.002000       0.7464    3.7096    0.3505
  132.47   86.52    9.67     0.002000       0.8098    1.7923    0.6855
  118.16   90.63    8.76     0.002000       0.8873    2.9890    0.3690
 -176.66   88.12  171.44     0.002000       0.9087    2.6222    0.4123
  160.70   90.57  179.97     0.002000       0.5198    3.6656    0.5115
   85.31   94.95    8.07     0.002000       0.8142    1.7572    0.6955
   71.39   87.44    1.44     0.002000       0.8041    1.5855    0.7817
   69.27   89.98    1.15     0.002000       0.6089    3.8381    0.4157
  103.21   90.32    1.17     0.002000       0.5453    3.7923    0.4705
   86.92   88.64   -9.62     0.002000       0.9017    2.8259    0.3848
 -160.64   90.27  178.96     0.002000       0.5255    3.8294    0.4834
 -152.14   96.13 -175.61     0.002000       0.8887    2.0350    0.5479
   78.98   94.71   -8.93     0.002000       0.8600    2.1513    0.5351
   55.83   89.18   11.93     0.002000       0.8067    1.9871    0.6195
  178.80   89.48  179.79     0.002000       0.6769    3.8732    0.3700
 -162.65   88.91  171.81     0.002000       0.8911    3.0500    0.3597
   88.69   90.09    0.29     0.002000       0.5547    3.8483    0.4554
  166.98   92.97 -168.44     0.002000       0.8431    2.2117    0.5309
 -138.41   90.83 -169.83     0.002000       0.8953    2.8160    0.3891
 -150.63   85.09  173.44     0.002000       0.8869    2.1675    0.5145
   95.20   89.94   -1.35     0.002000       0.6592    3.8371    0.3838
  176.50   90.78 -174.45     0.002000       0.8318    3.3371    0.3511
  144.38   89.32  178.81     0.002000       0.6103    3.8400    0.4146
  161.58   95.55 -170.59     0.002000       0.8351    1.9294    0.6164
   92.91   92.88   11.24     0.002000       0.8477    2.2515    0.5184
   96.61   89.87   -1.52     0.002000       0.5994    3.8059    0.4262
  166.62   90.15  179.76     0.002000       0.5221    3.6531    0.5110
   75.83   84.12    8.66     0.002000       0.8421    1.9685    0.5988
  136.29   82.90  174.91     0.002000       0.8426    1.7331    0.6814
  129.70   82.42    0.71     0.002000       0.8481    1.7007    0.6901
 -163.95   89.31  175.20     0.002000       0.7880    3.4647    0.3567
   95.80   90.80   11.02     0.002000       0.8908    2.6862    0.4108
   99.89   90.63    0.41     0.002000       0.6098    3.8422    0.4147
 -163.30   91.01  172.48     0.002000       0.8825    3.1219    0.3545
  152.77   95.64 -173.19     0.002000       0.8790    2.0809    0.5415
  132.87   89.19   -7.65     0.002000       0.8761    3.1133    0.3582
  158.76   89.43 -178.94     0.002000       0.5357    3.7722    0.4816
  165.32   89.43 -179.68     0.002000       0.7039    3.8552    0.3574
  159.21   91.85 -168.78     0.002000       0.8844    2.5273    0.4408
   54.44   90.60    4.86     0.002000       0.8409    3.3093    0.3499
   91.80   87.59  -11.63     0.002000       0.8410    2.2366    0.5262
  116.63   93.86    5.68     0.002000       0.8139    1.6426    0.7451
  119.38   89.14  -12.06     0.002000       0.8617    2.4197    0.4735
   49.34   96.56    0.67     0.002000       0.8309    1.6496    0.7266
   57.47   90.08   10.88     0.002000       0.8909    2.7447    0.4017
  162.26   89.46  178.81     0.002000       0.5249    3.7893    0.4893
  152.07   89.43 -179.67     0.002000       0.5197    3.6709    0.5108
  158.01   91.17  167.55     0.002000       0.8274    2.1612    0.5542
  109.87   89.05   11.24     0.002000       0.8885    2.6462    0.4184
 -142.98   89.40 -178.24     0.002000       0.6302    3.7936    0.4067
   97.54   89.97    1.43     0.002000       0.6508    3.8345    0.3891
   70.26   89.50   -0.24     0.002000       0.6765    3.8467    0.3729
  161.50   96.31 -179.86     0.002000       0.9050    2.0159    0.5431
  110.12   91.20   -8.85     0.002000       0.8992    2.9222    0.3725
  168.12   97.62 -177.18     0.002000       0.8543    1.7445    0.6675
   70.93   91.26   -9.41     0.002000       0.9010    2.8605    0.3802
   99.54   89.06  -10.77     0.002000       0.8936    2.7263    0.4033
 -145.82   89.31  179.92     0.002000       0.6293    3.8530    0.4005
   64.47   95.21    2.61     0.002000       0.9110    2.1165    0.5130
  122.51   90.51   -1.06     0.002000       0.5301    3.7378    0.4914
   91.26   91.34  -11.16     0.002000       0.8886    2.6123    0.4239
   99.82   92.52    7.03     0.002000       0.8064    1.6603    0.7439
  160.74   89.76 -167.68     0.002000       0.8121    2.0246    0.6037
   56.65   96.03    4.21     0.002000       0.8903    2.0456    0.5440
  128.49   90.35   11.57     0.002000       0.8832    2.6172    0.4258
  178.48   89.64 -170.12     0.002000       0.8924    2.8795    0.3815
   53.19   88.74  -10.17     0.002000       0.8990    2.7851    0.3919
  110.16   89.20    3.44     0.002000       0.7117    3.6224    0.3775
  168.33   91.16 -168.96     0.002000       0.8932    2.6787    0.4109
   81.12   95.47   -1.18     0.002000       0.8202    1.6225    0.7486
 -143.69   82.91 -173.87     0.002000       0.8503    1.8376    0.6361
  123.39   90.11   -0.94     0.002000       0.5196    3.6895    0.5082
  152.94   90.92 -175.87     0.002000       0.7970    3.5070    0.3480
  163.00   89.91  178.38     0.002000       0.5821    3.7983    0.4399
   53.43   90.00   -1.18     0.002000       0.6103    3.8316    0.4155
  142.25   89.58 -178.86     0.002000       0.5412    3.7511    0.4796
  166.01   88.74  169.26     0.002000       0.8989    2.7467    0.3977
 -171.47   94.59 -171.85     0.002000       0.8749    2.1911    0.5160
  170.41   90.98  177.61     0.002000       0.7119    3.7436    0.3644
   81.23   83.81    3.35     0.002000       0.8251    1.6569    0.7285
 -179.54   86.10 -168.89     0.002000       0.8382    2.1254    0.5562
  157.43   89.96 -179.47     0.002000       0.5307    3.8539    0.4754
   77.65   89.93   -0.45     0.002000       0.5420    3.8427    0.4669
 -171.10   90.98  170.70     0.002000       0.8973    2.9353    0.3718
 -157.93   90.88  175.64     0.002000       0.7987    3.5066    0.3472
  169.56   89.97 -178.59     0.002000       0.6561    3.8540    0.3839
  173.07   90.91 -178.60     0.002000       0.6428    3.8077    0.3970
  172.03   97.14  177.54     0.002000       0.8436    1.6866    0.6996
  153.46   86.94 -169.73     0.002000       0.8752    2.3651    0.4770
   98.82   90.97   -2.80     0.002000       0.7295    3.6853    0.3614
 -144.08   89.91 -170.68     0.002000       0.8878    2.9398    0.3753
  151.70   88.98 -179.79     0.002000       0.5195    3.7057    0.5060
   98.78   89.89    0.90     0.002000       0.5166    3.6915    0.5109
   92.36   89.15    1.76     0.002000       0.7223    3.7537    0.3580
 -157.92   82.10  179.36     0.002000       0.8592    1.7543    0.6599
   88.86   89.44    6.31     0.002000       0.8354    3.2651    0.3577
  155.56   89.98  173.20     0.002000       0.8459    3.2450    0.3555
   78.91   89.00    3.17     0.002000       0.7092    3.6344    0.3774
  163.97   90.41  169.16     0.002000       0.8931    2.7752    0.3961
 -166.67   90.10  178.77     0.002000       0.5819    3.8427    0.4347
 -176.57   83.37 -172.61     0.002000       0.8410    1.8307    0.6457
   38.98   84.59   -9.13     0.002000       0.8254    1.8923    0.6361
  171.23   89.80  178.71     0.002000       0.5153    3.7324    0.5064
   96.93   89.12    9.70     0.002000       0.8951    2.8700    0.3816
   51.06   89.47   -0.13     0.002000       0.6711    3.8566    0.3749
  120.17   90.11   -4.57     0.002000       0.7551    3.5171    0.3667
  135.82   91.74  -11.83     0.002000       0.8654    2.4076    0.4738
  166.85   90.29  179.86     0.002000       0.5221    3.6548    0.5108
 -171.84   90.38  178.81     0.002000       0.5370    3.8136    0.4750
  141.47   90.32  179.64     0.002000       0.5635    3.8639    0.4464
   79.23   90.22   -1.20     0.002000       0.5403    3.7555    0.4798
  179.67   92.66  168.07     0.002000       0.8178    2.0151    0.6024
   79.37   89.37   11.07     0.002000       0.8896    2.6866    0.4113
 -157.74   89.50  178.83     0.002000       0.5376    3.7778    0.4792
  128.90   90.29   -1.35     0.002000       0.5877    3.8383    0.4310
 -144.30   90.72  177.89     0.002000       0.6418    3.7717    0.4017
   96.24   89.51   -1.98     0.002000       0.6161    3.7883    0.4167
 -142.33   90.12  178.80     0.002000       0.5272    3.7197    0.4967
  116.35   89.69    1.18     0.002000       0.5414    3.7496    0.4796
  110.57   90.88   -7.27     0.002000       0.8903    3.0095    0.3647
   82.71   91.30  -11.75     0.002000       0.8644    2.4291    0.4701
 -155.55   90.06  178.33     0.002000       0.6287    3.8344    0.4030
   47.69   89.76    1.19     0.002000       0.5261    3.7236    0.4972
   75.29   90.69   11.98     0.002000       0.8580    2.4004    0.4795
   93.35   89.17  -10.00     0.002000       0.8946    2.8368    0.3865
 -173.76   85.02  170.02     0.002000       0.8239    1.8967    0.6359
 -138.35   91.97  171.28     0.002000       0.8063    1.7064    0.7236
 -165.80   90.13 -178.63     0.002000       0.5887    3.8140    0.4331
  172.68   89.93 -178.58     0.002000       0.5736    3.7910    0.4473
 -152.27   90.05 -178.59     0.002000       0.5746    3.7902    0.4466
 -163.10   91.03 -179.01     0.002000       0.6599    3.8268    0.3845
 -142.17   89.31 -179.51     0.002000       0.6729    3.8493    0.3747
  118.17   82.21    0.40     0.002000       0.8528    1.7232    0.6771
   52.71   91.07  -11.93     0.002000       0.8573    2.3912    0.4818
 -157.57   90.68 -174.41     0.002000       0.8665    3.1912    0.3524
   53.13   93.52   11.10     0.002000       0.8367    2.1552    0.5494
   99.50   86.70   -9.68     0.002000       0.8075    1.7936    0.6869
  117.89   97.49   -2.54     0.002000       0.8745    1.8702    0.6073
 -177.62   90.82 -177.82     0.002000       0.6614    3.7538    0.3915
   94.62   89.60    1.22     0.002000       0.5489    3.7730    0.4700
 -133.55   88.29 -168.30     0.002000       0.8628    2.4031    0.4762
 -132.75   86.48 -170.29     0.002000       0.8689    2.2906    0.4965
  130.71   88.93    6.65     0.002000       0.8694    3.2072    0.3498
   79.47   87.18    8.85     0.002000       0.8039    1.7360    0.7132
   78.50   88.86   -1.75     0.002000       0.6750    3.7671    0.3821
  170.06   90.02  178.42     0.002000       0.6303    3.8460    0.4006
 -147.55   90.43 -179.73     0.002000       0.7266    3.8306    0.3483
   84.33   89.63   10.02     0.002000       0.8917    2.8495    0.3860
  144.58   83.05  173.15     0.002000       0.8467    1.8225    0.6442
  102.52   87.89   11.56     0.002000       0.8586    2.3539    0.4888
   99.10   89.38  -12.16     0.002000       0.8157    2.0948    0.5804
  118.43   86.09  -10.46     0.002000       0.8547    2.2045    0.5253
  102.96   87.59   -1.92     0.002000       0.8053    1.5865    0.7800
   65.40   82.51    3.58     0.002000       0.8693    1.8623    0.6136
 -175.05   86.47  170.69     0.002000       0.8793    2.3217    0.4837
   54.12   90.76   -7.69     0.002000       0.8763    3.0915    0.3608
 -161.19   90.98  173.54     0.002000       0.8636    3.2374    0.3488
 -143.62   86.33 -176.78     0.002000       0.8134    1.6059    0.7628
  130.82   95.86   -0.88     0.002000       0.8275    1.6300    0.7385
  157.72   82.72  176.12     0.002000       0.8451    1.7134    0.6873
  159.12   93.14 -168.59     0.002000       0.8157    1.9553    0.6227
  171.06   89.81 -178.97     0.002000       0.6207    3.8574    0.4057
  139.56   90.17  179.20     0.002000       0.5908    3.8612    0.4259
   79.26   82.35    0.99     0.002000       0.8477    1.7135    0.6852
  108.00   88.91    6.07     0.002000       0.8543    3.2653    0.3495
  179.66   88.74  169.59     0.002000       0.9010    2.7893    0.3905
 -178.00   89.03  167.92     0.002000       0.8702    2.4795    0.4571
   77.12   89.86    0.73     0.002000       0.5568    3.8423    0.4544
 -143.78   82.12 -179.36     0.002000       0.8676    1.8026    0.6356
   93.85   93.95   10.38     0.002000       0.8124    1.8943    0.6457
 -155.19   90.12  169.18     0.002000       0.8921    2.7750    0.3966
   56.58   88.63   -9.08     0.002000       0.9031    2.8244    0.3843
   55.32   89.70   -1.03     0.002000       0.5599    3.8134    0.4556
 -158.68   86.86 -169.82     0.002000       0.8103    1.8135    0.6769
  173.21   91.05 -168.56     0.002000       0.8857    2.6080    0.4261
  121.01   90.35   12.03     0.002000       0.8654    2.4575    0.4640
  125.68   90.19    9.02     0.002000       0.8854    2.9777    0.3713
  152.13   86.01  172.55     0.002000       0.8929    2.2706    0.4871
   96.16   90.96   -1.13     0.002000       0.6509    3.8098    0.3917
  120.84   87.27   11.54     0.002000       0.8442    2.2375    0.5239
   85.80   90.74    5.74     0.002000       0.8276    3.3164    0.3553
  114.68   89.99    1.45     0.002000       0.6495    3.8389    0.3895
  167.63   89.31  179.36     0.002000       0.5217    3.6845    0.5069
  138.12   89.73  178.85     0.002000       0.6664    3.8581    0.3774
 -162.42   90.00  178.96     0.002000       0.5208    3.6914    0.5068
  117.48   89.82   -0.18     0.002000       0.5371    3.8514    0.4700
 -152.71   90.26 -174.59     0.002000       0.8048    3.3878    0.3575
  166.55   90.34 -179.56     0.002000       0.5221    3.6667    0.5091
   80.81   87.53   11.53     0.002000       0.8457    2.2633    0.5168
  132.04   82.38  175.64     0.002000       0.8624    1.8161    0.6347
  123.77   97.20    4.30     0.002000       0.8741    1.9000    0.5978
  130.60   82.59   -2.76     0.002000       0.8827    1.8992    0.5922
  139.50   93.28  172.04     0.002000       0.8928    2.3572    0.4688
  100.96   89.94    0.02     0.002000       0.5380    3.8518    0.4692
 -179.73   90.53  179.78     0.002000       0.5928    3.8644    0.4241
  108.86   89.34   11.24     0.002000       0.8881    2.6625    0.4160
   98.84   90.96   -3.43     0.002000       0.7311    3.6066    0.3690
 -171.03   89.93  178.40     0.002000       0.5943    3.8153    0.4288
  115.87   89.16   -8.96     0.002000       0.8907    2.9660    0.3706
  116.68   90.43    1.12     0.002000       0.5256    3.7632    0.4922
  155.79   90.45  179.69     0.002000       0.5959    3.8680    0.4215
  176.34   84.90  174.84     0.002000       0.8226    1.6518    0.7331
   78.59   89.95   -1.50     0.002000       0.6199    3.8176    0.4106
  149.86   89.82  178.82     0.002000       0.5295    3.7104    0.4958
   68.80   83.43   -5.63     0.002000       0.8706    1.9743    0.5771
   53.31   90.90   11.84     0.002000       0.8718    2.4950    0.4534
 -175.42   89.53 -179.00     0.002000       0.5193    3.7226    0.5038
  139.45   89.02 -173.66     0.002000       0.8578    3.2407    0.3509
   88.40   88.98    8.01     0.002000       0.8842    3.0479    0.3628
  157.46   90.71  179.40     0.002000       0.5222    3.6878    0.5059
 -150.17   90.15 -179.45     0.002000       0.5684    3.8570    0.4433
 -178.88   89.02  172.28     0.002000       0.8997    2.9544    0.3679
  152.43   90.91 -175.40     0.002000       0.8112    3.4419    0.3486
  163.75   89.91  178.67     0.002000       0.5874    3.8375    0.4312
   97.84   89.12  -10.96     0.002000       0.8915    2.6972    0.4088
  118.33   90.07    2.99     0.002000       0.6680    3.6999    0.3937
  120.58   89.01   10.31     0.002000       0.8969    2.7972    0.3911
  149.74   94.00  168.89     0.002000       0.8253    2.0071    0.5993
 -171.04   89.04 -176.34     0.002000       0.7726    3.5612    0.3535
  109.00   90.33   12.26     0.002000       0.8198    2.1329    0.5670
  161.49   97.71 -177.99     0.002000       0.8568    1.7417    0.6667
   96.77   89.43    0.36     0.002000       0.6465    3.8547    0.3896
  137.55   90.98 -172.49     0.002000       0.8831    3.1091    0.3557
   73.56   96.65    5.47     0.002000       0.8702    1.9652    0.5801
  165.03   90.50 -178.91     0.002000       0.5338    3.7560    0.4855
  123.91   90.86    5.11     0.002000       0.8216    3.3794    0.3508
 -173.54   86.51  169.02     0.002000       0.8141    1.9003    0.6424
   53.91   86.65   -6.82     0.002000       0.8073    1.6710    0.7382
   53.26   83.21    3.49     0.002000       0.8863    1.9636    0.5699
   50.44   87.18    7.35     0.002000       0.9027    2.4065    0.4537
 -158.65   93.30  179.15     0.002000       0.8123    1.5891    0.7720
 -179.59   89.21  179.04     0.002000       0.5178    3.7693    0.4988
 -147.73   89.38 -179.13     0.002000       0.6081    3.8414    0.4160
  165.96   90.43 -179.82     0.002000       0.5205    3.6617    0.5113
  151.15   89.64 -177.02     0.002000       0.6788    3.7001    0.3873
  138.45   83.95    8.58     0.002000       0.8354    1.8935    0.6281
   67.81   88.05  -10.36     0.002000       0.8931    2.5802    0.4270
  165.88   89.72  169.18     0.002000       0.8927    2.7827    0.3952
  161.29   90.39  179.05     0.002000       0.5256    3.6916    0.5021
  113.61   90.39   -0.88     0.002000       0.5142    3.8073    0.4970
   78.65   89.35    0.02     0.002000       0.6764    3.8467    0.3729
   58.60   90.25  -12.15     0.002000       0.8372    2.2662    0.5216
   89.59   91.21   11.62     0.002000       0.8752    2.5068    0.4493
   78.99   89.76   -0.58     0.002000       0.7000    3.8371    0.3612
 -161.98   89.87  178.89     0.002000       0.6665    3.8674    0.3764
  121.36   84.42   -2.45     0.002000       0.9115    2.0869    0.5203
 -141.62   89.75  178.72     0.002000       0.5596    3.7985    0.4577
 -167.00   89.84 -179.16     0.002000       0.5252    3.8351    0.4829
 -151.31   91.21  169.80     0.002000       0.9011    2.8081    0.3877
 -176.34   95.82  172.29     0.002000       0.8672    2.0464    0.5585
 -167.89   93.75 -170.30     0.002000       0.8124    1.8053    0.6782
 -166.37   90.67  179.87     0.002000       0.6163    3.8655    0.4077
   73.83   89.22    4.04     0.002000       0.7889    3.4970    0.3525
  161.00   90.30 -178.82     0.002000       0.5570    3.8073    0.4587
  157.94   89.52 -174.01     0.002000       0.8324    3.3121    0.3537
  123.85   87.71  -11.80     0.002000       0.8504    2.2914    0.5075
  147.07   88.79 -169.52     0.002000       0.8987    2.7671    0.3948
 -173.58   89.00 -171.65     0.002000       0.8918    3.0191    0.3633
 -149.54   91.04 -172.97     0.002000       0.8762    3.1593    0.3526
   87.18   82.66   -4.68     0.002000       0.8453    1.7687    0.6653
   97.15   88.62   11.01     0.002000       0.8921    2.6419    0.4173
   78.20   91.37  -11.18     0.002000       0.8873    2.5987    0.4268
 -145.55   85.47  169.60     0.002000       0.8389    2.0898    0.5655
  169.59   89.92  179.40     0.002000       0.5212    3.6612    0.5107
 -175.10   83.56 -177.53     0.002000       0.8992    2.0116    0.5479
 -165.49   87.05 -176.90     0.002000       0.8130    1.5969    0.7675
   74.63   92.63   11.62     0.002000       0.8298    2.1601    0.5528
  151.15   90.91 -175.37     0.002000       0.8114    3.4385    0.3489
   53.62   89.49    1.70     0.002000       0.6073    3.8042    0.4209
  139.50   90.43  179.49     0.002000       0.6499    3.8723    0.3857
   63.95   90.07    0.92     0.002000       0.5587    3.8293    0.4545
 -153.59   97.73 -177.61     0.002000       0.8567    1.7679    0.6567
   67.30   89.93    0.39     0.002000       0.5278    3.8456    0.4791
  108.24   87.23   11.60     0.002000       0.8170    2.0467    0.5934
 -175.75   94.35 -170.92     0.002000       0.8673    2.2054    0.5172
   61.04   83.62    7.93     0.002000       0.8406    1.8894    0.6255
 -165.13   82.20 -177.19     0.002000       0.8618    1.7846    0.6465
 -148.28   88.96  167.73     0.002000       0.8388    2.2600    0.5221
  150.42   88.95 -178.30     0.002000       0.6657    3.7818    0.3859
  124.66   90.76   -4.37     0.002000       0.7970    3.4985    0.3487
 -154.19   90.41  179.42     0.002000       0.5901    3.8546    0.4272
  139.21   89.38  168.38     0.002000       0.8847    2.6236    0.4240
 -166.04   88.93  169.92     0.002000       0.8996    2.8423    0.3835
   49.00   85.66   -7.83     0.002000       0.8779    2.2206    0.5072
  108.83   89.35   -1.15     0.002000       0.7184    3.8046    0.3549
  105.43   91.70  -10.65     0.002000       0.8953    2.6312    0.4175
  105.00   88.83   11.57     0.002000       0.8792    2.5407    0.4411
  106.35   94.83    8.69     0.002000       0.8646    2.1444    0.5340
  172.23   92.46  168.95     0.002000       0.8756    2.4169    0.4663
 -144.43   90.42  170.36     0.002000       0.8916    2.9116    0.3775
  176.31   90.09 -170.11     0.002000       0.8916    2.8825    0.3815
  178.65   89.81  178.95     0.002000       0.5269    3.6937    0.5006
 -142.70   90.20 -179.75     0.002000       0.7120    3.8492    0.3538
  121.48   86.84  -11.57     0.002000       0.8365    2.1620    0.5478
  147.09   89.24  170.84     0.002000       0.8921    2.9622    0.3705
   94.38   90.96   -5.41     0.002000       0.8269    3.3479    0.3520
   83.23   95.67   -8.93     0.002000       0.8326    1.9319    0.6174
  156.35   89.53 -179.58     0.002000       0.5217    3.6701    0.5090
  176.08   96.63  172.61     0.002000       0.8429    1.8339    0.6431
  119.11   90.15   -1.10     0.002000       0.5278    3.7137    0.4969
   61.21   83.41    7.29     0.002000       0.8369    1.8278    0.6499
 -143.91   93.46  169.74     0.002000       0.8645    2.2804    0.5014
 -155.06   90.23 -167.72     0.002000       0.8141    2.0703    0.5886
 -151.02   89.50  173.68     0.002000       0.8379    3.2825    0.3547
  148.50   89.25  174.38     0.002000       0.8432    3.3326    0.3464
   59.02   90.68  -11.41     0.002000       0.8834    2.6115    0.4266
 -171.48   89.81 -172.60     0.002000       0.8634    3.1542    0.3587
  147.91   89.52  169.23     0.002000       0.8933    2.7801    0.3953
   46.67   90.92   -4.64     0.002000       0.8148    3.4357    0.3476
 -154.12   89.14  167.69     0.002000       0.8135    2.0521    0.5944
   86.29   92.19   10.23     0.002000       0.8888    2.5109    0.4414
 -152.99   89.01  172.21     0.002000       0.8988    2.9498    0.3688
  121.10   90.74  -10.87     0.002000       0.8931    2.7371    0.4018
  167.06   90.77  179.03     0.002000       0.5192    3.7383    0.5017
 -166.89   87.06  175.40     0.002000       0.8123    1.6120    0.7609
  140.83   87.62  172.99     0.002000       0.9146    2.4924    0.4317
  149.62   86.61 -168.83     0.002000       0.8488    2.2215    0.5249
 -152.66   90.37  178.68     0.002000       0.5529    3.8057    0.4623
  151.55   89.38 -178.67     0.002000       0.6088    3.8303    0.4168
 -164.71   89.68 -173.55     0.002000       0.8431    3.2574    0.3553
  148.10   92.20  169.54     0.002000       0.8910    2.5218    0.4384
 -144.62   89.80  167.77     0.002000       0.8562    2.3911    0.4825
  155.36   89.79 -178.87     0.002000       0.5139    3.7339    0.5075
 -168.88   93.39 -169.01     0.002000       0.8496    2.2252    0.5235
  109.43   89.96    1.21     0.002000       0.6064    3.8301    0.4184
  124.68   90.26    6.18     0.002000       0.8321    3.2922    0.3561
   47.44   90.24    0.23     0.002000       0.5553    3.8500    0.4547
 -156.32   88.23 -171.66     0.002000       0.9084    2.6276    0.4116
   83.25   89.68   -0.05     0.002000       0.5550    3.8523    0.4547
   65.48   97.36   -4.29     0.002000       0.8453    1.7597    0.6687
 -147.45   88.09 -168.95     0.002000       0.8844    2.5271    0.4408
 -155.80   90.85 -171.61     0.002000       0.8874    3.0193    0.3651
  102.77   89.53   -9.29     0.002000       0.8878    2.9392    0.3754
   84.33   88.48  -11.82     0.002000       0.8097    2.0193    0.6071
 -155.14   94.55 -178.75     0.002000       0.8175    1.6057    0.7590
 -146.73   90.66 -169.94     0.002000       0.8941    2.8403    0.3862
 -179.92   89.85 -179.82     0.002000       0.5485    3.8622    0.4589
   72.76   89.84  -11.99     0.002000       0.8594    2.4179    0.4751
   65.76   91.14    8.66     0.002000       0.8960    2.9716    0.3675
   47.35   90.88   10.19     0.002000       0.8968    2.8216    0.3877
  140.92   89.29 -175.68     0.002000       0.7699    3.5104    0.3602
   71.39   87.82  -11.35     0.002000       0.8070    1.9517    0.6307
  172.71   84.58  170.74     0.002000       0.8535    2.0623    0.5633
   98.95   89.87   -1.32     0.002000       0.6678    3.8371    0.3788
  160.95   89.19 -179.18     0.002000       0.5148    3.7669    0.5020
  160.96   91.96 -170.21     0.002000       0.8997    2.5898    0.4221
   94.97   88.18   -8.67     0.002000       0.9053    2.6231    0.4138
  103.28   92.13  -10.79     0.002000       0.8843    2.5016    0.4455
  161.26   84.62 -171.13     0.002000       0.8242    1.8170    0.6640
   84.27   90.12    0.10     0.002000       0.5514    3.8506    0.4579
  100.39   91.12    9.40     0.002000       0.8986    2.8896    0.3773
 -151.64   86.68 -168.78     0.002000       0.8441    2.2046    0.5319
   88.69   89.97  -10.16     0.002000       0.8906    2.8372    0.3882
   92.45   89.39   -0.03     0.002000       0.5992    3.8502    0.4212
 -173.30   94.99 -171.88     0.002000       0.8704    2.1434    0.5306
   67.90   90.03  -11.69     0.002000       0.8766    2.5565    0.4397
  147.97   89.06 -168.54     0.002000       0.8860    2.6220    0.4236
  102.90   88.77  -11.67     0.002000       0.8060    1.9526    0.6312
 -161.89   95.08 -171.72     0.002000       0.8189    1.7738    0.6849
  136.85   90.19 -178.96     0.002000       0.5252    3.7147    0.4992
  166.25   91.21  168.26     0.002000       0.8819    2.5581    0.4366
  141.30   92.09 -171.52     0.002000       0.9050    2.5474    0.4267
   66.15   90.00    0.32     0.002000       0.5459    3.8521    0.4623
  139.62   90.97  179.48     0.002000       0.5182    3.7262    0.5044
  176.43   93.21  168.71     0.002000       0.8150    1.9200    0.6350
   86.83   89.33   -1.04     0.002000       0.5204    3.7719    0.4959
  146.07   91.17 -168.42     0.002000       0.8825    2.5689    0.4344
   75.88   89.54    0.46     0.002000       0.5673    3.8435    0.4458
  134.94   90.07 -179.28     0.002000       0.5769    3.8478    0.4379
  120.18   89.68   -0.42     0.002000       0.5652    3.8469    0.4471
  100.52   91.12   -8.35     0.002000       0.8926    3.0045    0.3647
   92.46   90.18   -0.74     0.002000       0.5258    3.8257    0.4836
 -178.00   92.86  174.56     0.002000       0.9227    2.4054    0.4438
 -151.31   90.30  179.90     0.002000       0.7144    3.8490    0.3526
  144.51   90.07 -178.91     0.002000       0.5153    3.8025    0.4967
 -169.96   85.60 -170.25     0.002000       0.8173    1.8256    0.6665
  165.51   84.62 -175.96     0.002000       0.8249    1.6417    0.7356
   61.74   89.75    0.99     0.002000       0.6089    3.8402    0.4155
